#  E (eV)   dos(E)     Int dos(E) EFermi =    6.234 eV
 -15.000  0.0000E+00  0.0000E+00
 -14.990  0.0000E+00  0.0000E+00
 -14.980  0.0000E+00  0.0000E+00
 -14.970  0.0000E+00  0.0000E+00
 -14.960  0.0000E+00  0.0000E+00
 -14.950  0.0000E+00  0.0000E+00
 -14.940  0.0000E+00  0.0000E+00
 -14.930  0.0000E+00  0.0000E+00
 -14.920  0.0000E+00  0.0000E+00
 -14.910  0.0000E+00  0.0000E+00
 -14.900  0.0000E+00  0.0000E+00
 -14.890  0.0000E+00  0.0000E+00
 -14.880  0.0000E+00  0.0000E+00
 -14.870  0.0000E+00  0.0000E+00
 -14.860  0.0000E+00  0.0000E+00
 -14.850  0.0000E+00  0.0000E+00
 -14.840  0.0000E+00  0.0000E+00
 -14.830  0.0000E+00  0.0000E+00
 -14.820  0.0000E+00  0.0000E+00
 -14.810  0.0000E+00  0.0000E+00
 -14.800  0.0000E+00  0.0000E+00
 -14.790  0.0000E+00  0.0000E+00
 -14.780  0.0000E+00  0.0000E+00
 -14.770  0.0000E+00  0.0000E+00
 -14.760  0.0000E+00  0.0000E+00
 -14.750  0.0000E+00  0.0000E+00
 -14.740  0.0000E+00  0.0000E+00
 -14.730  0.0000E+00  0.0000E+00
 -14.720  0.0000E+00  0.0000E+00
 -14.710  0.0000E+00  0.0000E+00
 -14.700  0.0000E+00  0.0000E+00
 -14.690  0.0000E+00  0.0000E+00
 -14.680  0.0000E+00  0.0000E+00
 -14.670  0.0000E+00  0.0000E+00
 -14.660  0.0000E+00  0.0000E+00
 -14.650  0.0000E+00  0.0000E+00
 -14.640  0.0000E+00  0.0000E+00
 -14.630  0.0000E+00  0.0000E+00
 -14.620  0.0000E+00  0.0000E+00
 -14.610  0.0000E+00  0.0000E+00
 -14.600  0.0000E+00  0.0000E+00
 -14.590  0.0000E+00  0.0000E+00
 -14.580  0.0000E+00  0.0000E+00
 -14.570  0.0000E+00  0.0000E+00
 -14.560  0.0000E+00  0.0000E+00
 -14.550  0.0000E+00  0.0000E+00
 -14.540  0.0000E+00  0.0000E+00
 -14.530  0.0000E+00  0.0000E+00
 -14.520  0.0000E+00  0.0000E+00
 -14.510  0.0000E+00  0.0000E+00
 -14.500  0.0000E+00  0.0000E+00
 -14.490  0.0000E+00  0.0000E+00
 -14.480  0.0000E+00  0.0000E+00
 -14.470  0.0000E+00  0.0000E+00
 -14.460  0.0000E+00  0.0000E+00
 -14.450  0.0000E+00  0.0000E+00
 -14.440  0.0000E+00  0.0000E+00
 -14.430  0.0000E+00  0.0000E+00
 -14.420  0.0000E+00  0.0000E+00
 -14.410  0.0000E+00  0.0000E+00
 -14.400  0.0000E+00  0.0000E+00
 -14.390  0.0000E+00  0.0000E+00
 -14.380  0.0000E+00  0.0000E+00
 -14.370  0.0000E+00  0.0000E+00
 -14.360  0.0000E+00  0.0000E+00
 -14.350  0.0000E+00  0.0000E+00
 -14.340  0.0000E+00  0.0000E+00
 -14.330  0.0000E+00  0.0000E+00
 -14.320  0.0000E+00  0.0000E+00
 -14.310  0.0000E+00  0.0000E+00
 -14.300  0.0000E+00  0.0000E+00
 -14.290  0.0000E+00  0.0000E+00
 -14.280  0.0000E+00  0.0000E+00
 -14.270  0.0000E+00  0.0000E+00
 -14.260  0.0000E+00  0.0000E+00
 -14.250  0.0000E+00  0.0000E+00
 -14.240  0.0000E+00  0.0000E+00
 -14.230  0.0000E+00  0.0000E+00
 -14.220  0.0000E+00  0.0000E+00
 -14.210  0.0000E+00  0.0000E+00
 -14.200  0.0000E+00  0.0000E+00
 -14.190  0.0000E+00  0.0000E+00
 -14.180  0.0000E+00  0.0000E+00
 -14.170  0.0000E+00  0.0000E+00
 -14.160  0.0000E+00  0.0000E+00
 -14.150  0.0000E+00  0.0000E+00
 -14.140  0.0000E+00  0.0000E+00
 -14.130  0.0000E+00  0.0000E+00
 -14.120  0.0000E+00  0.0000E+00
 -14.110  0.0000E+00  0.0000E+00
 -14.100  0.0000E+00  0.0000E+00
 -14.090  0.0000E+00  0.0000E+00
 -14.080  0.0000E+00  0.0000E+00
 -14.070  0.0000E+00  0.0000E+00
 -14.060  0.0000E+00  0.0000E+00
 -14.050  0.0000E+00  0.0000E+00
 -14.040  0.0000E+00  0.0000E+00
 -14.030  0.0000E+00  0.0000E+00
 -14.020  0.0000E+00  0.0000E+00
 -14.010  0.0000E+00  0.0000E+00
 -14.000  0.0000E+00  0.0000E+00
 -13.990  0.0000E+00  0.0000E+00
 -13.980  0.0000E+00  0.0000E+00
 -13.970  0.0000E+00  0.0000E+00
 -13.960  0.0000E+00  0.0000E+00
 -13.950  0.0000E+00  0.0000E+00
 -13.940  0.0000E+00  0.0000E+00
 -13.930  0.0000E+00  0.0000E+00
 -13.920  0.0000E+00  0.0000E+00
 -13.910  0.0000E+00  0.0000E+00
 -13.900  0.0000E+00  0.0000E+00
 -13.890  0.0000E+00  0.0000E+00
 -13.880  0.0000E+00  0.0000E+00
 -13.870  0.0000E+00  0.0000E+00
 -13.860  0.0000E+00  0.0000E+00
 -13.850  0.0000E+00  0.0000E+00
 -13.840  0.0000E+00  0.0000E+00
 -13.830  0.0000E+00  0.0000E+00
 -13.820  0.0000E+00  0.0000E+00
 -13.810  0.0000E+00  0.0000E+00
 -13.800  0.0000E+00  0.0000E+00
 -13.790  0.0000E+00  0.0000E+00
 -13.780  0.0000E+00  0.0000E+00
 -13.770  0.0000E+00  0.0000E+00
 -13.760  0.0000E+00  0.0000E+00
 -13.750  0.0000E+00  0.0000E+00
 -13.740  0.0000E+00  0.0000E+00
 -13.730  0.0000E+00  0.0000E+00
 -13.720  0.0000E+00  0.0000E+00
 -13.710  0.0000E+00  0.0000E+00
 -13.700  0.0000E+00  0.0000E+00
 -13.690  0.0000E+00  0.0000E+00
 -13.680  0.0000E+00  0.0000E+00
 -13.670  0.0000E+00  0.0000E+00
 -13.660  0.0000E+00  0.0000E+00
 -13.650  0.0000E+00  0.0000E+00
 -13.640  0.0000E+00  0.0000E+00
 -13.630  0.0000E+00  0.0000E+00
 -13.620  0.0000E+00  0.0000E+00
 -13.610  0.0000E+00  0.0000E+00
 -13.600  0.0000E+00  0.0000E+00
 -13.590  0.0000E+00  0.0000E+00
 -13.580  0.0000E+00  0.0000E+00
 -13.570  0.0000E+00  0.0000E+00
 -13.560  0.0000E+00  0.0000E+00
 -13.550  0.0000E+00  0.0000E+00
 -13.540  0.0000E+00  0.0000E+00
 -13.530  0.0000E+00  0.0000E+00
 -13.520  0.0000E+00  0.0000E+00
 -13.510  0.0000E+00  0.0000E+00
 -13.500  0.0000E+00  0.0000E+00
 -13.490  0.0000E+00  0.0000E+00
 -13.480  0.0000E+00  0.0000E+00
 -13.470  0.0000E+00  0.0000E+00
 -13.460  0.0000E+00  0.0000E+00
 -13.450  0.0000E+00  0.0000E+00
 -13.440  0.0000E+00  0.0000E+00
 -13.430  0.0000E+00  0.0000E+00
 -13.420  0.0000E+00  0.0000E+00
 -13.410  0.0000E+00  0.0000E+00
 -13.400  0.0000E+00  0.0000E+00
 -13.390  0.0000E+00  0.0000E+00
 -13.380  0.0000E+00  0.0000E+00
 -13.370  0.0000E+00  0.0000E+00
 -13.360  0.0000E+00  0.0000E+00
 -13.350  0.0000E+00  0.0000E+00
 -13.340  0.0000E+00  0.0000E+00
 -13.330  0.0000E+00  0.0000E+00
 -13.320  0.0000E+00  0.0000E+00
 -13.310  0.0000E+00  0.0000E+00
 -13.300  0.0000E+00  0.0000E+00
 -13.290  0.0000E+00  0.0000E+00
 -13.280  0.0000E+00  0.0000E+00
 -13.270  0.0000E+00  0.0000E+00
 -13.260  0.0000E+00  0.0000E+00
 -13.250  0.0000E+00  0.0000E+00
 -13.240  0.0000E+00  0.0000E+00
 -13.230  0.0000E+00  0.0000E+00
 -13.220  0.0000E+00  0.0000E+00
 -13.210  0.0000E+00  0.0000E+00
 -13.200  0.0000E+00  0.0000E+00
 -13.190  0.0000E+00  0.0000E+00
 -13.180  0.0000E+00  0.0000E+00
 -13.170  0.0000E+00  0.0000E+00
 -13.160  0.0000E+00  0.0000E+00
 -13.150  0.0000E+00  0.0000E+00
 -13.140  0.0000E+00  0.0000E+00
 -13.130  0.0000E+00  0.0000E+00
 -13.120  0.0000E+00  0.0000E+00
 -13.110  0.0000E+00  0.0000E+00
 -13.100  0.0000E+00  0.0000E+00
 -13.090  0.0000E+00  0.0000E+00
 -13.080  0.0000E+00  0.0000E+00
 -13.070  0.0000E+00  0.0000E+00
 -13.060  0.0000E+00  0.0000E+00
 -13.050  0.0000E+00  0.0000E+00
 -13.040  0.0000E+00  0.0000E+00
 -13.030  0.0000E+00  0.0000E+00
 -13.020  0.0000E+00  0.0000E+00
 -13.010  0.0000E+00  0.0000E+00
 -13.000  0.0000E+00  0.0000E+00
 -12.990  0.0000E+00  0.0000E+00
 -12.980  0.0000E+00  0.0000E+00
 -12.970  0.0000E+00  0.0000E+00
 -12.960  0.0000E+00  0.0000E+00
 -12.950  0.0000E+00  0.0000E+00
 -12.940  0.0000E+00  0.0000E+00
 -12.930  0.0000E+00  0.0000E+00
 -12.920  0.0000E+00  0.0000E+00
 -12.910  0.0000E+00  0.0000E+00
 -12.900  0.0000E+00  0.0000E+00
 -12.890  0.0000E+00  0.0000E+00
 -12.880  0.0000E+00  0.0000E+00
 -12.870  0.0000E+00  0.0000E+00
 -12.860  0.0000E+00  0.0000E+00
 -12.850  0.0000E+00  0.0000E+00
 -12.840  0.0000E+00  0.0000E+00
 -12.830  0.0000E+00  0.0000E+00
 -12.820  0.0000E+00  0.0000E+00
 -12.810  0.0000E+00  0.0000E+00
 -12.800  0.0000E+00  0.0000E+00
 -12.790  0.0000E+00  0.0000E+00
 -12.780  0.0000E+00  0.0000E+00
 -12.770  0.0000E+00  0.0000E+00
 -12.760  0.0000E+00  0.0000E+00
 -12.750  0.0000E+00  0.0000E+00
 -12.740  0.0000E+00  0.0000E+00
 -12.730  0.0000E+00  0.0000E+00
 -12.720  0.0000E+00  0.0000E+00
 -12.710  0.0000E+00  0.0000E+00
 -12.700  0.0000E+00  0.0000E+00
 -12.690  0.0000E+00  0.0000E+00
 -12.680  0.0000E+00  0.0000E+00
 -12.670  0.0000E+00  0.0000E+00
 -12.660  0.0000E+00  0.0000E+00
 -12.650  0.0000E+00  0.0000E+00
 -12.640  0.0000E+00  0.0000E+00
 -12.630  0.0000E+00  0.0000E+00
 -12.620  0.0000E+00  0.0000E+00
 -12.610  0.0000E+00  0.0000E+00
 -12.600  0.0000E+00  0.0000E+00
 -12.590  0.0000E+00  0.0000E+00
 -12.580  0.0000E+00  0.0000E+00
 -12.570  0.0000E+00  0.0000E+00
 -12.560  0.0000E+00  0.0000E+00
 -12.550  0.0000E+00  0.0000E+00
 -12.540  0.0000E+00  0.0000E+00
 -12.530  0.0000E+00  0.0000E+00
 -12.520  0.0000E+00  0.0000E+00
 -12.510  0.0000E+00  0.0000E+00
 -12.500  0.0000E+00  0.0000E+00
 -12.490  0.0000E+00  0.0000E+00
 -12.480  0.0000E+00  0.0000E+00
 -12.470  0.0000E+00  0.0000E+00
 -12.460  0.0000E+00  0.0000E+00
 -12.450  0.0000E+00  0.0000E+00
 -12.440  0.0000E+00  0.0000E+00
 -12.430  0.0000E+00  0.0000E+00
 -12.420  0.0000E+00  0.0000E+00
 -12.410  0.0000E+00  0.0000E+00
 -12.400  0.0000E+00  0.0000E+00
 -12.390  0.0000E+00  0.0000E+00
 -12.380  0.0000E+00  0.0000E+00
 -12.370  0.0000E+00  0.0000E+00
 -12.360  0.0000E+00  0.0000E+00
 -12.350  0.0000E+00  0.0000E+00
 -12.340  0.0000E+00  0.0000E+00
 -12.330  0.0000E+00  0.0000E+00
 -12.320  0.0000E+00  0.0000E+00
 -12.310  0.0000E+00  0.0000E+00
 -12.300  0.0000E+00  0.0000E+00
 -12.290  0.0000E+00  0.0000E+00
 -12.280  0.0000E+00  0.0000E+00
 -12.270  0.0000E+00  0.0000E+00
 -12.260  0.0000E+00  0.0000E+00
 -12.250  0.0000E+00  0.0000E+00
 -12.240  0.0000E+00  0.0000E+00
 -12.230  0.0000E+00  0.0000E+00
 -12.220  0.0000E+00  0.0000E+00
 -12.210  0.0000E+00  0.0000E+00
 -12.200  0.0000E+00  0.0000E+00
 -12.190  0.0000E+00  0.0000E+00
 -12.180  0.0000E+00  0.0000E+00
 -12.170  0.0000E+00  0.0000E+00
 -12.160  0.0000E+00  0.0000E+00
 -12.150  0.0000E+00  0.0000E+00
 -12.140  0.0000E+00  0.0000E+00
 -12.130  0.0000E+00  0.0000E+00
 -12.120  0.0000E+00  0.0000E+00
 -12.110  0.0000E+00  0.0000E+00
 -12.100  0.0000E+00  0.0000E+00
 -12.090  0.0000E+00  0.0000E+00
 -12.080  0.0000E+00  0.0000E+00
 -12.070  0.0000E+00  0.0000E+00
 -12.060  0.0000E+00  0.0000E+00
 -12.050  0.0000E+00  0.0000E+00
 -12.040  0.0000E+00  0.0000E+00
 -12.030  0.0000E+00  0.0000E+00
 -12.020  0.0000E+00  0.0000E+00
 -12.010  0.0000E+00  0.0000E+00
 -12.000  0.0000E+00  0.0000E+00
 -11.990  0.0000E+00  0.0000E+00
 -11.980  0.0000E+00  0.0000E+00
 -11.970  0.0000E+00  0.0000E+00
 -11.960  0.0000E+00  0.0000E+00
 -11.950  0.0000E+00  0.0000E+00
 -11.940  0.0000E+00  0.0000E+00
 -11.930  0.0000E+00  0.0000E+00
 -11.920  0.0000E+00  0.0000E+00
 -11.910  0.0000E+00  0.0000E+00
 -11.900  0.0000E+00  0.0000E+00
 -11.890  0.0000E+00  0.0000E+00
 -11.880  0.0000E+00  0.0000E+00
 -11.870  0.0000E+00  0.0000E+00
 -11.860  0.0000E+00  0.0000E+00
 -11.850  0.0000E+00  0.0000E+00
 -11.840  0.0000E+00  0.0000E+00
 -11.830  0.0000E+00  0.0000E+00
 -11.820  0.0000E+00  0.0000E+00
 -11.810  0.0000E+00  0.0000E+00
 -11.800  0.0000E+00  0.0000E+00
 -11.790  0.0000E+00  0.0000E+00
 -11.780  0.0000E+00  0.0000E+00
 -11.770  0.0000E+00  0.0000E+00
 -11.760  0.0000E+00  0.0000E+00
 -11.750  0.0000E+00  0.0000E+00
 -11.740  0.0000E+00  0.0000E+00
 -11.730  0.0000E+00  0.0000E+00
 -11.720  0.0000E+00  0.0000E+00
 -11.710  0.0000E+00  0.0000E+00
 -11.700  0.0000E+00  0.0000E+00
 -11.690  0.0000E+00  0.0000E+00
 -11.680  0.0000E+00  0.0000E+00
 -11.670  0.0000E+00  0.0000E+00
 -11.660  0.0000E+00  0.0000E+00
 -11.650  0.0000E+00  0.0000E+00
 -11.640  0.0000E+00  0.0000E+00
 -11.630  0.0000E+00  0.0000E+00
 -11.620  0.0000E+00  0.0000E+00
 -11.610  0.0000E+00  0.0000E+00
 -11.600  0.0000E+00  0.0000E+00
 -11.590  0.0000E+00  0.0000E+00
 -11.580  0.0000E+00  0.0000E+00
 -11.570  0.0000E+00  0.0000E+00
 -11.560  0.0000E+00  0.0000E+00
 -11.550  0.0000E+00  0.0000E+00
 -11.540  0.0000E+00  0.0000E+00
 -11.530  0.0000E+00  0.0000E+00
 -11.520  0.0000E+00  0.0000E+00
 -11.510  0.0000E+00  0.0000E+00
 -11.500  0.0000E+00  0.0000E+00
 -11.490  0.0000E+00  0.0000E+00
 -11.480  0.0000E+00  0.0000E+00
 -11.470  0.0000E+00  0.0000E+00
 -11.460  0.0000E+00  0.0000E+00
 -11.450  0.0000E+00  0.0000E+00
 -11.440  0.0000E+00  0.0000E+00
 -11.430  0.0000E+00  0.0000E+00
 -11.420  0.0000E+00  0.0000E+00
 -11.410  0.0000E+00  0.0000E+00
 -11.400  0.0000E+00  0.0000E+00
 -11.390  0.0000E+00  0.0000E+00
 -11.380  0.0000E+00  0.0000E+00
 -11.370  0.0000E+00  0.0000E+00
 -11.360  0.0000E+00  0.0000E+00
 -11.350  0.0000E+00  0.0000E+00
 -11.340  0.0000E+00  0.0000E+00
 -11.330  0.0000E+00  0.0000E+00
 -11.320  0.0000E+00  0.0000E+00
 -11.310  0.0000E+00  0.0000E+00
 -11.300  0.0000E+00  0.0000E+00
 -11.290  0.0000E+00  0.0000E+00
 -11.280  0.0000E+00  0.0000E+00
 -11.270  0.0000E+00  0.0000E+00
 -11.260  0.0000E+00  0.0000E+00
 -11.250  0.0000E+00  0.0000E+00
 -11.240  0.0000E+00  0.0000E+00
 -11.230  0.0000E+00  0.0000E+00
 -11.220  0.0000E+00  0.0000E+00
 -11.210  0.0000E+00  0.0000E+00
 -11.200  0.0000E+00  0.0000E+00
 -11.190  0.0000E+00  0.0000E+00
 -11.180  0.0000E+00  0.0000E+00
 -11.170  0.0000E+00  0.0000E+00
 -11.160  0.0000E+00  0.0000E+00
 -11.150  0.0000E+00  0.0000E+00
 -11.140  0.0000E+00  0.0000E+00
 -11.130  0.0000E+00  0.0000E+00
 -11.120  0.0000E+00  0.0000E+00
 -11.110  0.0000E+00  0.0000E+00
 -11.100  0.0000E+00  0.0000E+00
 -11.090  0.0000E+00  0.0000E+00
 -11.080  0.0000E+00  0.0000E+00
 -11.070  0.0000E+00  0.0000E+00
 -11.060  0.0000E+00  0.0000E+00
 -11.050  0.0000E+00  0.0000E+00
 -11.040  0.0000E+00  0.0000E+00
 -11.030  0.0000E+00  0.0000E+00
 -11.020  0.0000E+00  0.0000E+00
 -11.010  0.0000E+00  0.0000E+00
 -11.000  0.0000E+00  0.0000E+00
 -10.990  0.0000E+00  0.0000E+00
 -10.980  0.0000E+00  0.0000E+00
 -10.970  0.0000E+00  0.0000E+00
 -10.960  0.0000E+00  0.0000E+00
 -10.950  0.0000E+00  0.0000E+00
 -10.940  0.0000E+00  0.0000E+00
 -10.930  0.0000E+00  0.0000E+00
 -10.920  0.0000E+00  0.0000E+00
 -10.910  0.0000E+00  0.0000E+00
 -10.900  0.0000E+00  0.0000E+00
 -10.890  0.0000E+00  0.0000E+00
 -10.880  0.0000E+00  0.0000E+00
 -10.870  0.0000E+00  0.0000E+00
 -10.860  0.0000E+00  0.0000E+00
 -10.850  0.0000E+00  0.0000E+00
 -10.840  0.0000E+00  0.0000E+00
 -10.830  0.0000E+00  0.0000E+00
 -10.820  0.0000E+00  0.0000E+00
 -10.810  0.0000E+00  0.0000E+00
 -10.800  0.0000E+00  0.0000E+00
 -10.790  0.0000E+00  0.0000E+00
 -10.780  0.0000E+00  0.0000E+00
 -10.770  0.0000E+00  0.0000E+00
 -10.760  0.0000E+00  0.0000E+00
 -10.750  0.0000E+00  0.0000E+00
 -10.740  0.0000E+00  0.0000E+00
 -10.730  0.0000E+00  0.0000E+00
 -10.720  0.0000E+00  0.0000E+00
 -10.710  0.0000E+00  0.0000E+00
 -10.700  0.0000E+00  0.0000E+00
 -10.690  0.0000E+00  0.0000E+00
 -10.680  0.0000E+00  0.0000E+00
 -10.670  0.0000E+00  0.0000E+00
 -10.660  0.0000E+00  0.0000E+00
 -10.650  0.0000E+00  0.0000E+00
 -10.640  0.0000E+00  0.0000E+00
 -10.630  0.0000E+00  0.0000E+00
 -10.620  0.0000E+00  0.0000E+00
 -10.610  0.0000E+00  0.0000E+00
 -10.600  0.0000E+00  0.0000E+00
 -10.590  0.0000E+00  0.0000E+00
 -10.580  0.0000E+00  0.0000E+00
 -10.570  0.0000E+00  0.0000E+00
 -10.560  0.0000E+00  0.0000E+00
 -10.550  0.0000E+00  0.0000E+00
 -10.540  0.0000E+00  0.0000E+00
 -10.530  0.0000E+00  0.0000E+00
 -10.520  0.0000E+00  0.0000E+00
 -10.510  0.0000E+00  0.0000E+00
 -10.500  0.0000E+00  0.0000E+00
 -10.490  0.0000E+00  0.0000E+00
 -10.480  0.0000E+00  0.0000E+00
 -10.470  0.0000E+00  0.0000E+00
 -10.460  0.0000E+00  0.0000E+00
 -10.450  0.0000E+00  0.0000E+00
 -10.440  0.0000E+00  0.0000E+00
 -10.430  0.0000E+00  0.0000E+00
 -10.420  0.0000E+00  0.0000E+00
 -10.410  0.0000E+00  0.0000E+00
 -10.400  0.0000E+00  0.0000E+00
 -10.390  0.0000E+00  0.0000E+00
 -10.380  0.0000E+00  0.0000E+00
 -10.370  0.0000E+00  0.0000E+00
 -10.360  0.0000E+00  0.0000E+00
 -10.350  0.0000E+00  0.0000E+00
 -10.340  0.0000E+00  0.0000E+00
 -10.330  0.0000E+00  0.0000E+00
 -10.320  0.0000E+00  0.0000E+00
 -10.310  0.0000E+00  0.0000E+00
 -10.300  0.0000E+00  0.0000E+00
 -10.290  0.0000E+00  0.0000E+00
 -10.280  0.0000E+00  0.0000E+00
 -10.270  0.0000E+00  0.0000E+00
 -10.260  0.0000E+00  0.0000E+00
 -10.250  0.0000E+00  0.0000E+00
 -10.240  0.0000E+00  0.0000E+00
 -10.230  0.0000E+00  0.0000E+00
 -10.220  0.0000E+00  0.0000E+00
 -10.210  0.0000E+00  0.0000E+00
 -10.200  0.0000E+00  0.0000E+00
 -10.190  0.0000E+00  0.0000E+00
 -10.180  0.0000E+00  0.0000E+00
 -10.170  0.0000E+00  0.0000E+00
 -10.160  0.0000E+00  0.0000E+00
 -10.150  0.0000E+00  0.0000E+00
 -10.140  0.0000E+00  0.0000E+00
 -10.130  0.0000E+00  0.0000E+00
 -10.120  0.0000E+00  0.0000E+00
 -10.110  0.0000E+00  0.0000E+00
 -10.100  0.0000E+00  0.0000E+00
 -10.090  0.0000E+00  0.0000E+00
 -10.080  0.0000E+00  0.0000E+00
 -10.070  0.0000E+00  0.0000E+00
 -10.060  0.0000E+00  0.0000E+00
 -10.050  0.0000E+00  0.0000E+00
 -10.040  0.0000E+00  0.0000E+00
 -10.030  0.0000E+00  0.0000E+00
 -10.020  0.0000E+00  0.0000E+00
 -10.010  0.0000E+00  0.0000E+00
 -10.000  0.0000E+00  0.0000E+00
  -9.990  0.0000E+00  0.0000E+00
  -9.980  0.0000E+00  0.0000E+00
  -9.970  0.0000E+00  0.0000E+00
  -9.960  0.0000E+00  0.0000E+00
  -9.950  0.0000E+00  0.0000E+00
  -9.940  0.0000E+00  0.0000E+00
  -9.930  0.0000E+00  0.0000E+00
  -9.920  0.0000E+00  0.0000E+00
  -9.910  0.0000E+00  0.0000E+00
  -9.900  0.0000E+00  0.0000E+00
  -9.890  0.0000E+00  0.0000E+00
  -9.880  0.0000E+00  0.0000E+00
  -9.870  0.0000E+00  0.0000E+00
  -9.860  0.0000E+00  0.0000E+00
  -9.850  0.0000E+00  0.0000E+00
  -9.840  0.0000E+00  0.0000E+00
  -9.830  0.0000E+00  0.0000E+00
  -9.820  0.0000E+00  0.0000E+00
  -9.810  0.0000E+00  0.0000E+00
  -9.800  0.0000E+00  0.0000E+00
  -9.790  0.0000E+00  0.0000E+00
  -9.780  0.0000E+00  0.0000E+00
  -9.770  0.0000E+00  0.0000E+00
  -9.760  0.0000E+00  0.0000E+00
  -9.750  0.0000E+00  0.0000E+00
  -9.740  0.0000E+00  0.0000E+00
  -9.730  0.0000E+00  0.0000E+00
  -9.720  0.0000E+00  0.0000E+00
  -9.710  0.0000E+00  0.0000E+00
  -9.700  0.0000E+00  0.0000E+00
  -9.690  0.0000E+00  0.0000E+00
  -9.680  0.0000E+00  0.0000E+00
  -9.670  0.0000E+00  0.0000E+00
  -9.660  0.0000E+00  0.0000E+00
  -9.650  0.0000E+00  0.0000E+00
  -9.640  0.0000E+00  0.0000E+00
  -9.630  0.0000E+00  0.0000E+00
  -9.620  0.0000E+00  0.0000E+00
  -9.610  0.0000E+00  0.0000E+00
  -9.600  0.0000E+00  0.0000E+00
  -9.590  0.0000E+00  0.0000E+00
  -9.580  0.0000E+00  0.0000E+00
  -9.570  0.0000E+00  0.0000E+00
  -9.560  0.0000E+00  0.0000E+00
  -9.550  0.0000E+00  0.0000E+00
  -9.540  0.0000E+00  0.0000E+00
  -9.530  0.0000E+00  0.0000E+00
  -9.520  0.0000E+00  0.0000E+00
  -9.510  0.0000E+00  0.0000E+00
  -9.500  0.0000E+00  0.0000E+00
  -9.490  0.0000E+00  0.0000E+00
  -9.480  0.0000E+00  0.0000E+00
  -9.470  0.0000E+00  0.0000E+00
  -9.460  0.0000E+00  0.0000E+00
  -9.450  0.0000E+00  0.0000E+00
  -9.440  0.0000E+00  0.0000E+00
  -9.430  0.0000E+00  0.0000E+00
  -9.420  0.0000E+00  0.0000E+00
  -9.410  0.0000E+00  0.0000E+00
  -9.400  0.0000E+00  0.0000E+00
  -9.390  0.0000E+00  0.0000E+00
  -9.380  0.0000E+00  0.0000E+00
  -9.370  0.0000E+00  0.0000E+00
  -9.360  0.0000E+00  0.0000E+00
  -9.350  0.0000E+00  0.0000E+00
  -9.340  0.0000E+00  0.0000E+00
  -9.330  0.0000E+00  0.0000E+00
  -9.320  0.0000E+00  0.0000E+00
  -9.310  0.0000E+00  0.0000E+00
  -9.300  0.0000E+00  0.0000E+00
  -9.290  0.0000E+00  0.0000E+00
  -9.280  0.0000E+00  0.0000E+00
  -9.270  0.0000E+00  0.0000E+00
  -9.260  0.0000E+00  0.0000E+00
  -9.250  0.0000E+00  0.0000E+00
  -9.240  0.0000E+00  0.0000E+00
  -9.230  0.0000E+00  0.0000E+00
  -9.220  0.0000E+00  0.0000E+00
  -9.210  0.0000E+00  0.0000E+00
  -9.200  0.0000E+00  0.0000E+00
  -9.190  0.0000E+00  0.0000E+00
  -9.180  0.0000E+00  0.0000E+00
  -9.170  0.0000E+00  0.0000E+00
  -9.160  0.0000E+00  0.0000E+00
  -9.150  0.0000E+00  0.0000E+00
  -9.140  0.0000E+00  0.0000E+00
  -9.130  0.0000E+00  0.0000E+00
  -9.120  0.0000E+00  0.0000E+00
  -9.110  0.0000E+00  0.0000E+00
  -9.100  0.0000E+00  0.0000E+00
  -9.090  0.0000E+00  0.0000E+00
  -9.080  0.0000E+00  0.0000E+00
  -9.070  0.0000E+00  0.0000E+00
  -9.060  0.0000E+00  0.0000E+00
  -9.050  0.0000E+00  0.0000E+00
  -9.040  0.0000E+00  0.0000E+00
  -9.030  0.0000E+00  0.0000E+00
  -9.020  0.0000E+00  0.0000E+00
  -9.010  0.0000E+00  0.0000E+00
  -9.000  0.0000E+00  0.0000E+00
  -8.990  0.0000E+00  0.0000E+00
  -8.980  0.0000E+00  0.0000E+00
  -8.970  0.0000E+00  0.0000E+00
  -8.960  0.0000E+00  0.0000E+00
  -8.950  0.0000E+00  0.0000E+00
  -8.940  0.0000E+00  0.0000E+00
  -8.930  0.0000E+00  0.0000E+00
  -8.920  0.0000E+00  0.0000E+00
  -8.910  0.0000E+00  0.0000E+00
  -8.900  0.0000E+00  0.0000E+00
  -8.890  0.0000E+00  0.0000E+00
  -8.880  0.0000E+00  0.0000E+00
  -8.870  0.0000E+00  0.0000E+00
  -8.860  0.0000E+00  0.0000E+00
  -8.850  0.0000E+00  0.0000E+00
  -8.840  0.0000E+00  0.0000E+00
  -8.830  0.0000E+00  0.0000E+00
  -8.820  0.0000E+00  0.0000E+00
  -8.810  0.0000E+00  0.0000E+00
  -8.800  0.0000E+00  0.0000E+00
  -8.790  0.0000E+00  0.0000E+00
  -8.780  0.0000E+00  0.0000E+00
  -8.770  0.0000E+00  0.0000E+00
  -8.760  0.0000E+00  0.0000E+00
  -8.750  0.0000E+00  0.0000E+00
  -8.740  0.0000E+00  0.0000E+00
  -8.730  0.0000E+00  0.0000E+00
  -8.720  0.0000E+00  0.0000E+00
  -8.710  0.0000E+00  0.0000E+00
  -8.700  0.0000E+00  0.0000E+00
  -8.690  0.0000E+00  0.0000E+00
  -8.680  0.0000E+00  0.0000E+00
  -8.670  0.0000E+00  0.0000E+00
  -8.660  0.0000E+00  0.0000E+00
  -8.650  0.0000E+00  0.0000E+00
  -8.640  0.0000E+00  0.0000E+00
  -8.630  0.0000E+00  0.0000E+00
  -8.620  0.0000E+00  0.0000E+00
  -8.610  0.0000E+00  0.0000E+00
  -8.600  0.0000E+00  0.0000E+00
  -8.590  0.0000E+00  0.0000E+00
  -8.580  0.0000E+00  0.0000E+00
  -8.570  0.0000E+00  0.0000E+00
  -8.560  0.0000E+00  0.0000E+00
  -8.550  0.0000E+00  0.0000E+00
  -8.540  0.0000E+00  0.0000E+00
  -8.530  0.0000E+00  0.0000E+00
  -8.520  0.0000E+00  0.0000E+00
  -8.510  0.0000E+00  0.0000E+00
  -8.500  0.0000E+00  0.0000E+00
  -8.490  0.0000E+00  0.0000E+00
  -8.480  0.0000E+00  0.0000E+00
  -8.470  0.0000E+00  0.0000E+00
  -8.460  0.0000E+00  0.0000E+00
  -8.450  0.0000E+00  0.0000E+00
  -8.440  0.0000E+00  0.0000E+00
  -8.430  0.0000E+00  0.0000E+00
  -8.420  0.0000E+00  0.0000E+00
  -8.410  0.0000E+00  0.0000E+00
  -8.400  0.0000E+00  0.0000E+00
  -8.390  0.0000E+00  0.0000E+00
  -8.380  0.0000E+00  0.0000E+00
  -8.370  0.0000E+00  0.0000E+00
  -8.360  0.0000E+00  0.0000E+00
  -8.350  0.0000E+00  0.0000E+00
  -8.340  0.0000E+00  0.0000E+00
  -8.330  0.0000E+00  0.0000E+00
  -8.320  0.0000E+00  0.0000E+00
  -8.310  0.0000E+00  0.0000E+00
  -8.300  0.0000E+00  0.0000E+00
  -8.290  0.0000E+00  0.0000E+00
  -8.280  0.0000E+00  0.0000E+00
  -8.270  0.0000E+00  0.0000E+00
  -8.260  0.0000E+00  0.0000E+00
  -8.250  0.0000E+00  0.0000E+00
  -8.240  0.0000E+00  0.0000E+00
  -8.230  0.0000E+00  0.0000E+00
  -8.220  0.0000E+00  0.0000E+00
  -8.210  0.0000E+00  0.0000E+00
  -8.200  0.0000E+00  0.0000E+00
  -8.190  0.0000E+00  0.0000E+00
  -8.180  0.0000E+00  0.0000E+00
  -8.170  0.0000E+00  0.0000E+00
  -8.160  0.0000E+00  0.0000E+00
  -8.150  0.0000E+00  0.0000E+00
  -8.140  0.0000E+00  0.0000E+00
  -8.130  0.0000E+00  0.0000E+00
  -8.120  0.0000E+00  0.0000E+00
  -8.110  0.0000E+00  0.0000E+00
  -8.100  0.0000E+00  0.0000E+00
  -8.090  0.0000E+00  0.0000E+00
  -8.080  0.0000E+00  0.0000E+00
  -8.070  0.0000E+00  0.0000E+00
  -8.060  0.0000E+00  0.0000E+00
  -8.050  0.0000E+00  0.0000E+00
  -8.040  0.0000E+00  0.0000E+00
  -8.030  0.0000E+00  0.0000E+00
  -8.020  0.0000E+00  0.0000E+00
  -8.010  0.0000E+00  0.0000E+00
  -8.000  0.0000E+00  0.0000E+00
  -7.990  0.0000E+00  0.0000E+00
  -7.980  0.0000E+00  0.0000E+00
  -7.970  0.0000E+00  0.0000E+00
  -7.960  0.0000E+00  0.0000E+00
  -7.950  0.0000E+00  0.0000E+00
  -7.940  0.0000E+00  0.0000E+00
  -7.930  0.0000E+00  0.0000E+00
  -7.920  0.0000E+00  0.0000E+00
  -7.910  0.0000E+00  0.0000E+00
  -7.900  0.0000E+00  0.0000E+00
  -7.890  0.0000E+00  0.0000E+00
  -7.880  0.0000E+00  0.0000E+00
  -7.870  0.0000E+00  0.0000E+00
  -7.860  0.0000E+00  0.0000E+00
  -7.850  0.0000E+00  0.0000E+00
  -7.840  0.0000E+00  0.0000E+00
  -7.830  0.0000E+00  0.0000E+00
  -7.820  0.0000E+00  0.0000E+00
  -7.810  0.0000E+00  0.0000E+00
  -7.800  0.0000E+00  0.0000E+00
  -7.790  0.0000E+00  0.0000E+00
  -7.780  0.0000E+00  0.0000E+00
  -7.770  0.0000E+00  0.0000E+00
  -7.760  0.0000E+00  0.0000E+00
  -7.750  0.0000E+00  0.0000E+00
  -7.740  0.0000E+00  0.0000E+00
  -7.730  0.0000E+00  0.0000E+00
  -7.720  0.0000E+00  0.0000E+00
  -7.710  0.0000E+00  0.0000E+00
  -7.700  0.0000E+00  0.0000E+00
  -7.690  0.0000E+00  0.0000E+00
  -7.680  0.0000E+00  0.0000E+00
  -7.670  0.0000E+00  0.0000E+00
  -7.660  0.0000E+00  0.0000E+00
  -7.650  0.0000E+00  0.0000E+00
  -7.640  0.0000E+00  0.0000E+00
  -7.630  0.0000E+00  0.0000E+00
  -7.620  0.0000E+00  0.0000E+00
  -7.610  0.0000E+00  0.0000E+00
  -7.600  0.0000E+00  0.0000E+00
  -7.590  0.0000E+00  0.0000E+00
  -7.580  0.0000E+00  0.0000E+00
  -7.570  0.0000E+00  0.0000E+00
  -7.560  0.0000E+00  0.0000E+00
  -7.550  0.0000E+00  0.0000E+00
  -7.540  0.0000E+00  0.0000E+00
  -7.530  0.0000E+00  0.0000E+00
  -7.520  0.0000E+00  0.0000E+00
  -7.510  0.0000E+00  0.0000E+00
  -7.500  0.0000E+00  0.0000E+00
  -7.490  0.0000E+00  0.0000E+00
  -7.480  0.0000E+00  0.0000E+00
  -7.470  0.0000E+00  0.0000E+00
  -7.460  0.0000E+00  0.0000E+00
  -7.450  0.0000E+00  0.0000E+00
  -7.440  0.0000E+00  0.0000E+00
  -7.430  0.0000E+00  0.0000E+00
  -7.420  0.0000E+00  0.0000E+00
  -7.410  0.0000E+00  0.0000E+00
  -7.400  0.0000E+00  0.0000E+00
  -7.390  0.0000E+00  0.0000E+00
  -7.380  0.0000E+00  0.0000E+00
  -7.370  0.0000E+00  0.0000E+00
  -7.360  0.0000E+00  0.0000E+00
  -7.350  0.0000E+00  0.0000E+00
  -7.340  0.0000E+00  0.0000E+00
  -7.330  0.0000E+00  0.0000E+00
  -7.320  0.0000E+00  0.0000E+00
  -7.310  0.0000E+00  0.0000E+00
  -7.300  0.0000E+00  0.0000E+00
  -7.290  0.0000E+00  0.0000E+00
  -7.280  0.0000E+00  0.0000E+00
  -7.270  0.0000E+00  0.0000E+00
  -7.260  0.0000E+00  0.0000E+00
  -7.250  0.0000E+00  0.0000E+00
  -7.240  0.0000E+00  0.0000E+00
  -7.230  0.0000E+00  0.0000E+00
  -7.220  0.0000E+00  0.0000E+00
  -7.210  0.0000E+00  0.0000E+00
  -7.200  0.0000E+00  0.0000E+00
  -7.190  0.0000E+00  0.0000E+00
  -7.180  0.0000E+00  0.0000E+00
  -7.170  0.0000E+00  0.0000E+00
  -7.160  0.0000E+00  0.0000E+00
  -7.150  0.0000E+00  0.0000E+00
  -7.140  0.0000E+00  0.0000E+00
  -7.130  0.0000E+00  0.0000E+00
  -7.120  0.0000E+00  0.0000E+00
  -7.110  0.0000E+00  0.0000E+00
  -7.100  0.0000E+00  0.0000E+00
  -7.090  0.0000E+00  0.0000E+00
  -7.080  0.0000E+00  0.0000E+00
  -7.070  0.0000E+00  0.0000E+00
  -7.060  0.0000E+00  0.0000E+00
  -7.050  0.0000E+00  0.0000E+00
  -7.040  0.0000E+00  0.0000E+00
  -7.030  0.0000E+00  0.0000E+00
  -7.020  0.0000E+00  0.0000E+00
  -7.010  0.0000E+00  0.0000E+00
  -7.000  0.0000E+00  0.0000E+00
  -6.990  0.0000E+00  0.0000E+00
  -6.980  0.0000E+00  0.0000E+00
  -6.970  0.0000E+00  0.0000E+00
  -6.960  0.0000E+00  0.0000E+00
  -6.950  0.0000E+00  0.0000E+00
  -6.940  0.0000E+00  0.0000E+00
  -6.930  0.0000E+00  0.0000E+00
  -6.920  0.0000E+00  0.0000E+00
  -6.910  0.0000E+00  0.0000E+00
  -6.900  0.0000E+00  0.0000E+00
  -6.890  0.0000E+00  0.0000E+00
  -6.880  0.0000E+00  0.0000E+00
  -6.870  0.0000E+00  0.0000E+00
  -6.860  0.0000E+00  0.0000E+00
  -6.850  0.0000E+00  0.0000E+00
  -6.840  0.0000E+00  0.0000E+00
  -6.830  0.0000E+00  0.0000E+00
  -6.820  0.0000E+00  0.0000E+00
  -6.810  0.0000E+00  0.0000E+00
  -6.800  0.0000E+00  0.0000E+00
  -6.790  0.0000E+00  0.0000E+00
  -6.780  0.0000E+00  0.0000E+00
  -6.770  0.0000E+00  0.0000E+00
  -6.760  0.0000E+00  0.0000E+00
  -6.750  0.0000E+00  0.0000E+00
  -6.740  0.0000E+00  0.0000E+00
  -6.730  0.0000E+00  0.0000E+00
  -6.720  0.0000E+00  0.0000E+00
  -6.710  0.0000E+00  0.0000E+00
  -6.700  0.0000E+00  0.0000E+00
  -6.690  0.0000E+00  0.0000E+00
  -6.680  0.0000E+00  0.0000E+00
  -6.670  0.0000E+00  0.0000E+00
  -6.660  0.0000E+00  0.0000E+00
  -6.650  0.0000E+00  0.0000E+00
  -6.640  0.0000E+00  0.0000E+00
  -6.630  0.0000E+00  0.0000E+00
  -6.620  0.0000E+00  0.0000E+00
  -6.610  0.0000E+00  0.0000E+00
  -6.600  0.0000E+00  0.0000E+00
  -6.590  0.0000E+00  0.0000E+00
  -6.580  0.0000E+00  0.0000E+00
  -6.570  0.0000E+00  0.0000E+00
  -6.560  0.0000E+00  0.0000E+00
  -6.550  0.0000E+00  0.0000E+00
  -6.540  0.0000E+00  0.0000E+00
  -6.530  0.0000E+00  0.0000E+00
  -6.520  0.0000E+00  0.0000E+00
  -6.510  0.0000E+00  0.0000E+00
  -6.500  0.0000E+00  0.0000E+00
  -6.490  0.0000E+00  0.0000E+00
  -6.480  0.0000E+00  0.0000E+00
  -6.470  0.0000E+00  0.0000E+00
  -6.460  0.0000E+00  0.0000E+00
  -6.450  0.0000E+00  0.0000E+00
  -6.440  0.0000E+00  0.0000E+00
  -6.430  0.0000E+00  0.0000E+00
  -6.420  0.0000E+00  0.0000E+00
  -6.410  0.0000E+00  0.0000E+00
  -6.400  0.0000E+00  0.0000E+00
  -6.390  0.0000E+00  0.0000E+00
  -6.380  0.0000E+00  0.0000E+00
  -6.370  0.0000E+00  0.0000E+00
  -6.360  0.0000E+00  0.0000E+00
  -6.350  0.0000E+00  0.0000E+00
  -6.340  0.0000E+00  0.0000E+00
  -6.330  0.0000E+00  0.0000E+00
  -6.320  0.0000E+00  0.0000E+00
  -6.310  0.0000E+00  0.0000E+00
  -6.300  0.0000E+00  0.0000E+00
  -6.290  0.0000E+00  0.0000E+00
  -6.280  0.0000E+00  0.0000E+00
  -6.270  0.0000E+00  0.0000E+00
  -6.260  0.0000E+00  0.0000E+00
  -6.250  0.0000E+00  0.0000E+00
  -6.240  0.0000E+00  0.0000E+00
  -6.230  0.0000E+00  0.0000E+00
  -6.220  0.0000E+00  0.0000E+00
  -6.210  0.0000E+00  0.0000E+00
  -6.200  0.0000E+00  0.0000E+00
  -6.190  0.0000E+00  0.0000E+00
  -6.180  0.0000E+00  0.0000E+00
  -6.170  0.0000E+00  0.0000E+00
  -6.160  0.0000E+00  0.0000E+00
  -6.150  0.0000E+00  0.0000E+00
  -6.140  0.0000E+00  0.0000E+00
  -6.130  0.0000E+00  0.0000E+00
  -6.120  0.0000E+00  0.0000E+00
  -6.110  0.0000E+00  0.0000E+00
  -6.100  0.0000E+00  0.0000E+00
  -6.090  0.0000E+00  0.0000E+00
  -6.080  0.0000E+00  0.0000E+00
  -6.070  0.0000E+00  0.0000E+00
  -6.060  0.0000E+00  0.0000E+00
  -6.050  0.0000E+00  0.0000E+00
  -6.040  0.0000E+00  0.0000E+00
  -6.030  0.0000E+00  0.0000E+00
  -6.020  0.0000E+00  0.0000E+00
  -6.010  0.0000E+00  0.0000E+00
  -6.000  0.0000E+00  0.0000E+00
  -5.990  0.0000E+00  0.0000E+00
  -5.980  0.0000E+00  0.0000E+00
  -5.970  0.0000E+00  0.0000E+00
  -5.960  0.0000E+00  0.0000E+00
  -5.950  0.0000E+00  0.0000E+00
  -5.940  0.0000E+00  0.0000E+00
  -5.930  0.0000E+00  0.0000E+00
  -5.920  0.0000E+00  0.0000E+00
  -5.910  0.0000E+00  0.0000E+00
  -5.900  0.0000E+00  0.0000E+00
  -5.890  0.0000E+00  0.0000E+00
  -5.880  0.0000E+00  0.0000E+00
  -5.870  0.0000E+00  0.0000E+00
  -5.860  0.0000E+00  0.0000E+00
  -5.850  0.0000E+00  0.0000E+00
  -5.840  0.0000E+00  0.0000E+00
  -5.830  0.2723E-03  0.6011E-06
  -5.820  0.1716E-02  0.9507E-05
  -5.810  0.4402E-02  0.3906E-04
  -5.800  0.8330E-02  0.1017E-03
  -5.790  0.1350E-01  0.2098E-03
  -5.780  0.1991E-01  0.3758E-03
  -5.770  0.2757E-01  0.6122E-03
  -5.760  0.3646E-01  0.9313E-03
  -5.750  0.4660E-01  0.1346E-02
  -5.740  0.1117E+00  0.2084E-02
  -5.730  0.1413E+00  0.3403E-02
  -5.720  0.1068E+00  0.4697E-02
  -5.710  0.9067E-01  0.5607E-02
  -5.700  0.9572E-01  0.6539E-02
  -5.690  0.1009E+00  0.7522E-02
  -5.680  0.1061E+00  0.8557E-02
  -5.670  0.1115E+00  0.9645E-02
  -5.660  0.1170E+00  0.1079E-01
  -5.650  0.1226E+00  0.1199E-01
  -5.640  0.1283E+00  0.1324E-01
  -5.630  0.1341E+00  0.1455E-01
  -5.620  0.1400E+00  0.1592E-01
  -5.610  0.1460E+00  0.1735E-01
  -5.600  0.1521E+00  0.1884E-01
  -5.590  0.1614E+00  0.2041E-01
  -5.580  0.1701E+00  0.2207E-01
  -5.570  0.1776E+00  0.2380E-01
  -5.560  0.1841E+00  0.2561E-01
  -5.550  0.1896E+00  0.2748E-01
  -5.540  0.1940E+00  0.2940E-01
  -5.530  0.1974E+00  0.3136E-01
  -5.520  0.1997E+00  0.3335E-01
  -5.510  0.2006E+00  0.3535E-01
  -5.500  0.1925E+00  0.3731E-01
  -5.490  0.1892E+00  0.3922E-01
  -5.480  0.1908E+00  0.4111E-01
  -5.470  0.1940E+00  0.4304E-01
  -5.460  0.1973E+00  0.4500E-01
  -5.450  0.2007E+00  0.4699E-01
  -5.440  0.2041E+00  0.4901E-01
  -5.430  0.2077E+00  0.5107E-01
  -5.420  0.2113E+00  0.5316E-01
  -5.410  0.2151E+00  0.5529E-01
  -5.400  0.2189E+00  0.5746E-01
  -5.390  0.2228E+00  0.5967E-01
  -5.380  0.2269E+00  0.6192E-01
  -5.370  0.2310E+00  0.6421E-01
  -5.360  0.2352E+00  0.6654E-01
  -5.350  0.2395E+00  0.6892E-01
  -5.340  0.2438E+00  0.7133E-01
  -5.330  0.2481E+00  0.7379E-01
  -5.320  0.2523E+00  0.7629E-01
  -5.310  0.2567E+00  0.7884E-01
  -5.300  0.2610E+00  0.8143E-01
  -5.290  0.2653E+00  0.8406E-01
  -5.280  0.2696E+00  0.8673E-01
  -5.270  0.2730E+00  0.8945E-01
  -5.260  0.2748E+00  0.9219E-01
  -5.250  0.2753E+00  0.9494E-01
  -5.240  0.2767E+00  0.9770E-01
  -5.230  0.2789E+00  0.1005E+00
  -5.220  0.2811E+00  0.1033E+00
  -5.210  0.2832E+00  0.1061E+00
  -5.200  0.2852E+00  0.1089E+00
  -5.190  0.2872E+00  0.1118E+00
  -5.180  0.2892E+00  0.1147E+00
  -5.170  0.2911E+00  0.1176E+00
  -5.160  0.2929E+00  0.1205E+00
  -5.150  0.2947E+00  0.1234E+00
  -5.140  0.2964E+00  0.1264E+00
  -5.130  0.2976E+00  0.1294E+00
  -5.120  0.2984E+00  0.1323E+00
  -5.110  0.2995E+00  0.1353E+00
  -5.100  0.3009E+00  0.1383E+00
  -5.090  0.3026E+00  0.1414E+00
  -5.080  0.3045E+00  0.1444E+00
  -5.070  0.3068E+00  0.1474E+00
  -5.060  0.3094E+00  0.1505E+00
  -5.050  0.3122E+00  0.1536E+00
  -5.040  0.3152E+00  0.1568E+00
  -5.030  0.3185E+00  0.1599E+00
  -5.020  0.3219E+00  0.1631E+00
  -5.010  0.3252E+00  0.1664E+00
  -5.000  0.3286E+00  0.1696E+00
  -4.990  0.3320E+00  0.1729E+00
  -4.980  0.3354E+00  0.1763E+00
  -4.970  0.3388E+00  0.1797E+00
  -4.960  0.3423E+00  0.1831E+00
  -4.950  0.3458E+00  0.1865E+00
  -4.940  0.3493E+00  0.1900E+00
  -4.930  0.3528E+00  0.1935E+00
  -4.920  0.3563E+00  0.1970E+00
  -4.910  0.3599E+00  0.2006E+00
  -4.900  0.3634E+00  0.2042E+00
  -4.890  0.3666E+00  0.2079E+00
  -4.880  0.3693E+00  0.2116E+00
  -4.870  0.3717E+00  0.2153E+00
  -4.860  0.3736E+00  0.2190E+00
  -4.850  0.3751E+00  0.2227E+00
  -4.840  0.3762E+00  0.2265E+00
  -4.830  0.3768E+00  0.2303E+00
  -4.820  0.3771E+00  0.2340E+00
  -4.810  0.3772E+00  0.2378E+00
  -4.800  0.3802E+00  0.2416E+00
  -4.790  0.3825E+00  0.2454E+00
  -4.780  0.3845E+00  0.2492E+00
  -4.770  0.3866E+00  0.2531E+00
  -4.760  0.3886E+00  0.2570E+00
  -4.750  0.3907E+00  0.2609E+00
  -4.740  0.3928E+00  0.2648E+00
  -4.730  0.3948E+00  0.2687E+00
  -4.720  0.3969E+00  0.2727E+00
  -4.710  0.3990E+00  0.2767E+00
  -4.700  0.4011E+00  0.2807E+00
  -4.690  0.4033E+00  0.2847E+00
  -4.680  0.4054E+00  0.2887E+00
  -4.670  0.4076E+00  0.2928E+00
  -4.660  0.4097E+00  0.2969E+00
  -4.650  0.4117E+00  0.3010E+00
  -4.640  0.4137E+00  0.3051E+00
  -4.630  0.4158E+00  0.3093E+00
  -4.620  0.4178E+00  0.3134E+00
  -4.610  0.4198E+00  0.3176E+00
  -4.600  0.4215E+00  0.3218E+00
  -4.590  0.4234E+00  0.3260E+00
  -4.580  0.4256E+00  0.3303E+00
  -4.570  0.4280E+00  0.3346E+00
  -4.560  0.4306E+00  0.3388E+00
  -4.550  0.4333E+00  0.3432E+00
  -4.540  0.4361E+00  0.3475E+00
  -4.530  0.4389E+00  0.3519E+00
  -4.520  0.4419E+00  0.3563E+00
  -4.510  0.4449E+00  0.3607E+00
  -4.500  0.4479E+00  0.3652E+00
  -4.490  0.4511E+00  0.3697E+00
  -4.480  0.4543E+00  0.3742E+00
  -4.470  0.4575E+00  0.3788E+00
  -4.460  0.4608E+00  0.3834E+00
  -4.450  0.4641E+00  0.3880E+00
  -4.440  0.4674E+00  0.3926E+00
  -4.430  0.4708E+00  0.3973E+00
  -4.420  0.4742E+00  0.4021E+00
  -4.410  0.4776E+00  0.4068E+00
  -4.400  0.4811E+00  0.4116E+00
  -4.390  0.4846E+00  0.4164E+00
  -4.380  0.4876E+00  0.4213E+00
  -4.370  0.4898E+00  0.4262E+00
  -4.360  0.4916E+00  0.4311E+00
  -4.350  0.4931E+00  0.4360E+00
  -4.340  0.4950E+00  0.4410E+00
  -4.330  0.4971E+00  0.4459E+00
  -4.320  0.4991E+00  0.4509E+00
  -4.310  0.5011E+00  0.4559E+00
  -4.300  0.5031E+00  0.4609E+00
  -4.290  0.5049E+00  0.4660E+00
  -4.280  0.5068E+00  0.4710E+00
  -4.270  0.5085E+00  0.4761E+00
  -4.260  0.5102E+00  0.4812E+00
  -4.250  0.5121E+00  0.4863E+00
  -4.240  0.5144E+00  0.4914E+00
  -4.230  0.5171E+00  0.4966E+00
  -4.220  0.5201E+00  0.5018E+00
  -4.210  0.5234E+00  0.5070E+00
  -4.200  0.5267E+00  0.5122E+00
  -4.190  0.5296E+00  0.5175E+00
  -4.180  0.5325E+00  0.5228E+00
  -4.170  0.5354E+00  0.5282E+00
  -4.160  0.5384E+00  0.5336E+00
  -4.150  0.5415E+00  0.5389E+00
  -4.140  0.5445E+00  0.5444E+00
  -4.130  0.5476E+00  0.5498E+00
  -4.120  0.5507E+00  0.5553E+00
  -4.110  0.5538E+00  0.5609E+00
  -4.100  0.5570E+00  0.5664E+00
  -4.090  0.5601E+00  0.5720E+00
  -4.080  0.5633E+00  0.5776E+00
  -4.070  0.5665E+00  0.5833E+00
  -4.060  0.5697E+00  0.5889E+00
  -4.050  0.5729E+00  0.5947E+00
  -4.040  0.5762E+00  0.6004E+00
  -4.030  0.5794E+00  0.6062E+00
  -4.020  0.5827E+00  0.6120E+00
  -4.010  0.5860E+00  0.6178E+00
  -4.000  0.5893E+00  0.6237E+00
  -3.990  0.5926E+00  0.6296E+00
  -3.980  0.5961E+00  0.6356E+00
  -3.970  0.5999E+00  0.6415E+00
  -3.960  0.6040E+00  0.6476E+00
  -3.950  0.6082E+00  0.6536E+00
  -3.940  0.6125E+00  0.6597E+00
  -3.930  0.6170E+00  0.6659E+00
  -3.920  0.6216E+00  0.6721E+00
  -3.910  0.6263E+00  0.6783E+00
  -3.900  0.6312E+00  0.6846E+00
  -3.890  0.6362E+00  0.6909E+00
  -3.880  0.6413E+00  0.6973E+00
  -3.870  0.6465E+00  0.7038E+00
  -3.860  0.6519E+00  0.7102E+00
  -3.850  0.6574E+00  0.7168E+00
  -3.840  0.6630E+00  0.7234E+00
  -3.830  0.6688E+00  0.7301E+00
  -3.820  0.6746E+00  0.7368E+00
  -3.810  0.6804E+00  0.7435E+00
  -3.800  0.6863E+00  0.7504E+00
  -3.790  0.6922E+00  0.7573E+00
  -3.780  0.6981E+00  0.7642E+00
  -3.770  0.7040E+00  0.7712E+00
  -3.760  0.7096E+00  0.7783E+00
  -3.750  0.7160E+00  0.7854E+00
  -3.740  0.7227E+00  0.7926E+00
  -3.730  0.7296E+00  0.7999E+00
  -3.720  0.7366E+00  0.8072E+00
  -3.710  0.7438E+00  0.8146E+00
  -3.700  0.7511E+00  0.8221E+00
  -3.690  0.7586E+00  0.8296E+00
  -3.680  0.7662E+00  0.8373E+00
  -3.670  0.7740E+00  0.8450E+00
  -3.660  0.7819E+00  0.8527E+00
  -3.650  0.7900E+00  0.8606E+00
  -3.640  0.8409E+00  0.8687E+00
  -3.630  0.8683E+00  0.8773E+00
  -3.620  0.8835E+00  0.8860E+00
  -3.610  0.8970E+00  0.8949E+00
  -3.600  0.9088E+00  0.9040E+00
  -3.590  0.9190E+00  0.9131E+00
  -3.580  0.9274E+00  0.9223E+00
  -3.570  0.9342E+00  0.9317E+00
  -3.560  0.9394E+00  0.9410E+00
  -3.550  0.9403E+00  0.9504E+00
  -3.540  0.9341E+00  0.9598E+00
  -3.530  0.9208E+00  0.9691E+00
  -3.520  0.9036E+00  0.9782E+00
  -3.510  0.9009E+00  0.9872E+00
  -3.500  0.8983E+00  0.9962E+00
  -3.490  0.8958E+00  0.1005E+01
  -3.480  0.8933E+00  0.1014E+01
  -3.470  0.8910E+00  0.1023E+01
  -3.460  0.8888E+00  0.1032E+01
  -3.450  0.8867E+00  0.1041E+01
  -3.440  0.8846E+00  0.1050E+01
  -3.430  0.8827E+00  0.1059E+01
  -3.420  0.8809E+00  0.1067E+01
  -3.410  0.8792E+00  0.1076E+01
  -3.400  0.8776E+00  0.1085E+01
  -3.390  0.8760E+00  0.1094E+01
  -3.380  0.8743E+00  0.1102E+01
  -3.370  0.8725E+00  0.1111E+01
  -3.360  0.8705E+00  0.1120E+01
  -3.350  0.8685E+00  0.1129E+01
  -3.340  0.8664E+00  0.1137E+01
  -3.330  0.8641E+00  0.1146E+01
  -3.320  0.8602E+00  0.1155E+01
  -3.310  0.8512E+00  0.1163E+01
  -3.300  0.8455E+00  0.1172E+01
  -3.290  0.8430E+00  0.1180E+01
  -3.280  0.8422E+00  0.1188E+01
  -3.270  0.8409E+00  0.1197E+01
  -3.260  0.8393E+00  0.1205E+01
  -3.250  0.8371E+00  0.1214E+01
  -3.240  0.8346E+00  0.1222E+01
  -3.230  0.8317E+00  0.1230E+01
  -3.220  0.8293E+00  0.1239E+01
  -3.210  0.8294E+00  0.1247E+01
  -3.200  0.8316E+00  0.1255E+01
  -3.190  0.8362E+00  0.1264E+01
  -3.180  0.8395E+00  0.1272E+01
  -3.170  0.8341E+00  0.1280E+01
  -3.160  0.8275E+00  0.1289E+01
  -3.150  0.8204E+00  0.1297E+01
  -3.140  0.8136E+00  0.1305E+01
  -3.130  0.8072E+00  0.1313E+01
  -3.120  0.8010E+00  0.1321E+01
  -3.110  0.7952E+00  0.1329E+01
  -3.100  0.7897E+00  0.1337E+01
  -3.090  0.7844E+00  0.1345E+01
  -3.080  0.7795E+00  0.1353E+01
  -3.070  0.7749E+00  0.1361E+01
  -3.060  0.7707E+00  0.1368E+01
  -3.050  0.7665E+00  0.1376E+01
  -3.040  0.7614E+00  0.1384E+01
  -3.030  0.7564E+00  0.1391E+01
  -3.020  0.7516E+00  0.1399E+01
  -3.010  0.7469E+00  0.1406E+01
  -3.000  0.7423E+00  0.1414E+01
  -2.990  0.7379E+00  0.1421E+01
  -2.980  0.7336E+00  0.1428E+01
  -2.970  0.7294E+00  0.1436E+01
  -2.960  0.7254E+00  0.1443E+01
  -2.950  0.7214E+00  0.1450E+01
  -2.940  0.7177E+00  0.1457E+01
  -2.930  0.7141E+00  0.1465E+01
  -2.920  0.7107E+00  0.1472E+01
  -2.910  0.7074E+00  0.1479E+01
  -2.900  0.7043E+00  0.1486E+01
  -2.890  0.7013E+00  0.1493E+01
  -2.880  0.6985E+00  0.1500E+01
  -2.870  0.6959E+00  0.1507E+01
  -2.860  0.6934E+00  0.1514E+01
  -2.850  0.6910E+00  0.1521E+01
  -2.840  0.6885E+00  0.1528E+01
  -2.830  0.6859E+00  0.1535E+01
  -2.820  0.6834E+00  0.1541E+01
  -2.810  0.6807E+00  0.1548E+01
  -2.800  0.6780E+00  0.1555E+01
  -2.790  0.6753E+00  0.1562E+01
  -2.780  0.6725E+00  0.1568E+01
  -2.770  0.6697E+00  0.1575E+01
  -2.760  0.6668E+00  0.1582E+01
  -2.750  0.6639E+00  0.1589E+01
  -2.740  0.6609E+00  0.1595E+01
  -2.730  0.6578E+00  0.1602E+01
  -2.720  0.6548E+00  0.1608E+01
  -2.710  0.6516E+00  0.1615E+01
  -2.700  0.6491E+00  0.1621E+01
  -2.690  0.6500E+00  0.1628E+01
  -2.680  0.6545E+00  0.1634E+01
  -2.670  0.6626E+00  0.1641E+01
  -2.660  0.6741E+00  0.1648E+01
  -2.650  0.6892E+00  0.1654E+01
  -2.640  0.6880E+00  0.1661E+01
  -2.630  0.6260E+00  0.1668E+01
  -2.620  0.6236E+00  0.1674E+01
  -2.610  0.6212E+00  0.1680E+01
  -2.600  0.6187E+00  0.1686E+01
  -2.590  0.6162E+00  0.1693E+01
  -2.580  0.6137E+00  0.1699E+01
  -2.570  0.6111E+00  0.1705E+01
  -2.560  0.6086E+00  0.1711E+01
  -2.550  0.6060E+00  0.1717E+01
  -2.540  0.6033E+00  0.1723E+01
  -2.530  0.6007E+00  0.1729E+01
  -2.520  0.5980E+00  0.1735E+01
  -2.510  0.5953E+00  0.1741E+01
  -2.500  0.5926E+00  0.1747E+01
  -2.490  0.5898E+00  0.1753E+01
  -2.480  0.5871E+00  0.1759E+01
  -2.470  0.5842E+00  0.1765E+01
  -2.460  0.5814E+00  0.1771E+01
  -2.450  0.5785E+00  0.1776E+01
  -2.440  0.5757E+00  0.1782E+01
  -2.430  0.5727E+00  0.1788E+01
  -2.420  0.5698E+00  0.1794E+01
  -2.410  0.5668E+00  0.1799E+01
  -2.400  0.5639E+00  0.1805E+01
  -2.390  0.5613E+00  0.1810E+01
  -2.380  0.5600E+00  0.1816E+01
  -2.370  0.5591E+00  0.1822E+01
  -2.360  0.5578E+00  0.1827E+01
  -2.350  0.5559E+00  0.1833E+01
  -2.340  0.5535E+00  0.1838E+01
  -2.330  0.5507E+00  0.1844E+01
  -2.320  0.5478E+00  0.1849E+01
  -2.310  0.5445E+00  0.1855E+01
  -2.300  0.5409E+00  0.1860E+01
  -2.290  0.5371E+00  0.1866E+01
  -2.280  0.5329E+00  0.1871E+01
  -2.270  0.5285E+00  0.1876E+01
  -2.260  0.5224E+00  0.1882E+01
  -2.250  0.5150E+00  0.1887E+01
  -2.240  0.5066E+00  0.1892E+01
  -2.230  0.4973E+00  0.1897E+01
  -2.220  0.4870E+00  0.1902E+01
  -2.210  0.4758E+00  0.1907E+01
  -2.200  0.4636E+00  0.1911E+01
  -2.190  0.4504E+00  0.1916E+01
  -2.180  0.4363E+00  0.1920E+01
  -2.170  0.4212E+00  0.1925E+01
  -2.160  0.4034E+00  0.1929E+01
  -2.150  0.3852E+00  0.1933E+01
  -2.140  0.3677E+00  0.1936E+01
  -2.130  0.3510E+00  0.1940E+01
  -2.120  0.3357E+00  0.1944E+01
  -2.110  0.3232E+00  0.1947E+01
  -2.100  0.3110E+00  0.1950E+01
  -2.090  0.2989E+00  0.1953E+01
  -2.080  0.2871E+00  0.1956E+01
  -2.070  0.2755E+00  0.1959E+01
  -2.060  0.2640E+00  0.1961E+01
  -2.050  0.2528E+00  0.1964E+01
  -2.040  0.2417E+00  0.1967E+01
  -2.030  0.2309E+00  0.1969E+01
  -2.020  0.2202E+00  0.1971E+01
  -2.010  0.2097E+00  0.1973E+01
  -2.000  0.1995E+00  0.1975E+01
  -1.990  0.1894E+00  0.1977E+01
  -1.980  0.1795E+00  0.1979E+01
  -1.970  0.1699E+00  0.1981E+01
  -1.960  0.1604E+00  0.1983E+01
  -1.950  0.1511E+00  0.1984E+01
  -1.940  0.1420E+00  0.1986E+01
  -1.930  0.1332E+00  0.1987E+01
  -1.920  0.1245E+00  0.1988E+01
  -1.910  0.1160E+00  0.1989E+01
  -1.900  0.1078E+00  0.1991E+01
  -1.890  0.9986E-01  0.1992E+01
  -1.880  0.9223E-01  0.1993E+01
  -1.870  0.8487E-01  0.1993E+01
  -1.860  0.7780E-01  0.1994E+01
  -1.850  0.7101E-01  0.1995E+01
  -1.840  0.6451E-01  0.1996E+01
  -1.830  0.5828E-01  0.1996E+01
  -1.820  0.5235E-01  0.1997E+01
  -1.810  0.4669E-01  0.1997E+01
  -1.800  0.4132E-01  0.1998E+01
  -1.790  0.3624E-01  0.1998E+01
  -1.780  0.3143E-01  0.1998E+01
  -1.770  0.2691E-01  0.1999E+01
  -1.760  0.2281E-01  0.1999E+01
  -1.750  0.1925E-01  0.1999E+01
  -1.740  0.1622E-01  0.1999E+01
  -1.730  0.1415E-01  0.2000E+01
  -1.720  0.1303E-01  0.2000E+01
  -1.710  0.1228E-01  0.2000E+01
  -1.700  0.1190E-01  0.2000E+01
  -1.690  0.1188E-01  0.2000E+01
  -1.680  0.1223E-01  0.2000E+01
  -1.670  0.1295E-01  0.2000E+01
  -1.660  0.1404E-01  0.2000E+01
  -1.650  0.1553E-01  0.2001E+01
  -1.640  0.1760E-01  0.2001E+01
  -1.630  0.2024E-01  0.2001E+01
  -1.620  0.2346E-01  0.2001E+01
  -1.610  0.2721E-01  0.2001E+01
  -1.600  0.3126E-01  0.2002E+01
  -1.590  0.3561E-01  0.2002E+01
  -1.580  0.4024E-01  0.2002E+01
  -1.570  0.4516E-01  0.2003E+01
  -1.560  0.5038E-01  0.2003E+01
  -1.550  0.5588E-01  0.2004E+01
  -1.540  0.6167E-01  0.2004E+01
  -1.530  0.6774E-01  0.2005E+01
  -1.520  0.7411E-01  0.2006E+01
  -1.510  0.8076E-01  0.2007E+01
  -1.500  0.8763E-01  0.2007E+01
  -1.490  0.9466E-01  0.2008E+01
  -1.480  0.1018E+00  0.2009E+01
  -1.470  0.1092E+00  0.2010E+01
  -1.460  0.1166E+00  0.2011E+01
  -1.450  0.1243E+00  0.2013E+01
  -1.440  0.1321E+00  0.2014E+01
  -1.430  0.1400E+00  0.2015E+01
  -1.420  0.1481E+00  0.2017E+01
  -1.410  0.1563E+00  0.2018E+01
  -1.400  0.1647E+00  0.2020E+01
  -1.390  0.1733E+00  0.2022E+01
  -1.380  0.1820E+00  0.2023E+01
  -1.370  0.1909E+00  0.2025E+01
  -1.360  0.1999E+00  0.2027E+01
  -1.350  0.2090E+00  0.2029E+01
  -1.340  0.2184E+00  0.2031E+01
  -1.330  0.2278E+00  0.2034E+01
  -1.320  0.2374E+00  0.2036E+01
  -1.310  0.2472E+00  0.2038E+01
  -1.300  0.2572E+00  0.2041E+01
  -1.290  0.2672E+00  0.2043E+01
  -1.280  0.2775E+00  0.2046E+01
  -1.270  0.2879E+00  0.2049E+01
  -1.260  0.2984E+00  0.2052E+01
  -1.250  0.3091E+00  0.2055E+01
  -1.240  0.3199E+00  0.2058E+01
  -1.230  0.3309E+00  0.2061E+01
  -1.220  0.3421E+00  0.2065E+01
  -1.210  0.3571E+00  0.2068E+01
  -1.200  0.3737E+00  0.2072E+01
  -1.190  0.3902E+00  0.2076E+01
  -1.180  0.4066E+00  0.2080E+01
  -1.170  0.4228E+00  0.2084E+01
  -1.160  0.4389E+00  0.2088E+01
  -1.150  0.4549E+00  0.2093E+01
  -1.140  0.4708E+00  0.2097E+01
  -1.130  0.4866E+00  0.2102E+01
  -1.120  0.5022E+00  0.2107E+01
  -1.110  0.5155E+00  0.2112E+01
  -1.100  0.5246E+00  0.2117E+01
  -1.090  0.5334E+00  0.2123E+01
  -1.080  0.5420E+00  0.2128E+01
  -1.070  0.5502E+00  0.2133E+01
  -1.060  0.5582E+00  0.2139E+01
  -1.050  0.5658E+00  0.2145E+01
  -1.040  0.5732E+00  0.2150E+01
  -1.030  0.5803E+00  0.2156E+01
  -1.020  0.5871E+00  0.2162E+01
  -1.010  0.5929E+00  0.2168E+01
  -1.000  0.5988E+00  0.2174E+01
  -0.990  0.6049E+00  0.2180E+01
  -0.980  0.6113E+00  0.2186E+01
  -0.970  0.6180E+00  0.2192E+01
  -0.960  0.6248E+00  0.2198E+01
  -0.950  0.6319E+00  0.2204E+01
  -0.940  0.6393E+00  0.2211E+01
  -0.930  0.6469E+00  0.2217E+01
  -0.920  0.6547E+00  0.2224E+01
  -0.910  0.6628E+00  0.2230E+01
  -0.900  0.6711E+00  0.2237E+01
  -0.890  0.6796E+00  0.2244E+01
  -0.880  0.6890E+00  0.2251E+01
  -0.870  0.7010E+00  0.2258E+01
  -0.860  0.7157E+00  0.2265E+01
  -0.850  0.7330E+00  0.2272E+01
  -0.840  0.7529E+00  0.2279E+01
  -0.830  0.7755E+00  0.2287E+01
  -0.820  0.8007E+00  0.2295E+01
  -0.810  0.8285E+00  0.2303E+01
  -0.800  0.8602E+00  0.2311E+01
  -0.790  0.1252E+01  0.2320E+01
  -0.780  0.1051E+01  0.2331E+01
  -0.770  0.1167E+01  0.2342E+01
  -0.760  0.1326E+01  0.2355E+01
  -0.750  0.1432E+01  0.2368E+01
  -0.740  0.1482E+01  0.2383E+01
  -0.730  0.1483E+01  0.2398E+01
  -0.720  0.1475E+01  0.2413E+01
  -0.710  0.1462E+01  0.2427E+01
  -0.700  0.1456E+01  0.2442E+01
  -0.690  0.1463E+01  0.2457E+01
  -0.680  0.1468E+01  0.2471E+01
  -0.670  0.1467E+01  0.2486E+01
  -0.660  0.1468E+01  0.2501E+01
  -0.650  0.1464E+01  0.2515E+01
  -0.640  0.1454E+01  0.2530E+01
  -0.630  0.1438E+01  0.2544E+01
  -0.620  0.1417E+01  0.2559E+01
  -0.610  0.1399E+01  0.2573E+01
  -0.600  0.1380E+01  0.2586E+01
  -0.590  0.1359E+01  0.2600E+01
  -0.580  0.1338E+01  0.2614E+01
  -0.570  0.1315E+01  0.2627E+01
  -0.560  0.1291E+01  0.2640E+01
  -0.550  0.1266E+01  0.2653E+01
  -0.540  0.1240E+01  0.2665E+01
  -0.530  0.1214E+01  0.2678E+01
  -0.520  0.1187E+01  0.2690E+01
  -0.510  0.1161E+01  0.2701E+01
  -0.500  0.1134E+01  0.2713E+01
  -0.490  0.1105E+01  0.2724E+01
  -0.480  0.1077E+01  0.2735E+01
  -0.470  0.1050E+01  0.2745E+01
  -0.460  0.1024E+01  0.2756E+01
  -0.450  0.9999E+00  0.2766E+01
  -0.440  0.9769E+00  0.2776E+01
  -0.430  0.9553E+00  0.2786E+01
  -0.420  0.9350E+00  0.2795E+01
  -0.410  0.9160E+00  0.2804E+01
  -0.400  0.8983E+00  0.2813E+01
  -0.390  0.8820E+00  0.2822E+01
  -0.380  0.8670E+00  0.2831E+01
  -0.370  0.8530E+00  0.2840E+01
  -0.360  0.8399E+00  0.2848E+01
  -0.350  0.8275E+00  0.2856E+01
  -0.340  0.8159E+00  0.2865E+01
  -0.330  0.8049E+00  0.2873E+01
  -0.320  0.7945E+00  0.2881E+01
  -0.310  0.7846E+00  0.2889E+01
  -0.300  0.7753E+00  0.2896E+01
  -0.290  0.7661E+00  0.2904E+01
  -0.280  0.7571E+00  0.2912E+01
  -0.270  0.7481E+00  0.2919E+01
  -0.260  0.7400E+00  0.2927E+01
  -0.250  0.7322E+00  0.2934E+01
  -0.240  0.7245E+00  0.2941E+01
  -0.230  0.7169E+00  0.2948E+01
  -0.220  0.7094E+00  0.2956E+01
  -0.210  0.7020E+00  0.2963E+01
  -0.200  0.6947E+00  0.2970E+01
  -0.190  0.6876E+00  0.2977E+01
  -0.180  0.6804E+00  0.2983E+01
  -0.170  0.6734E+00  0.2990E+01
  -0.160  0.6665E+00  0.2997E+01
  -0.150  0.6597E+00  0.3004E+01
  -0.140  0.6531E+00  0.3010E+01
  -0.130  0.6466E+00  0.3017E+01
  -0.120  0.6402E+00  0.3023E+01
  -0.110  0.6340E+00  0.3029E+01
  -0.100  0.6279E+00  0.3036E+01
  -0.090  0.6219E+00  0.3042E+01
  -0.080  0.6161E+00  0.3048E+01
  -0.070  0.6103E+00  0.3054E+01
  -0.060  0.6047E+00  0.3060E+01
  -0.050  0.5993E+00  0.3066E+01
  -0.040  0.5939E+00  0.3072E+01
  -0.030  0.5887E+00  0.3078E+01
  -0.020  0.5837E+00  0.3084E+01
  -0.010  0.5787E+00  0.3090E+01
   0.000  0.5732E+00  0.3096E+01
   0.010  0.5685E+00  0.3101E+01
   0.020  0.5644E+00  0.3107E+01
   0.030  0.5604E+00  0.3113E+01
   0.040  0.5565E+00  0.3118E+01
   0.050  0.5526E+00  0.3124E+01
   0.060  0.5487E+00  0.3129E+01
   0.070  0.5449E+00  0.3135E+01
   0.080  0.5410E+00  0.3140E+01
   0.090  0.5373E+00  0.3146E+01
   0.100  0.5335E+00  0.3151E+01
   0.110  0.5298E+00  0.3156E+01
   0.120  0.5261E+00  0.3162E+01
   0.130  0.5224E+00  0.3167E+01
   0.140  0.5188E+00  0.3172E+01
   0.150  0.5152E+00  0.3177E+01
   0.160  0.5116E+00  0.3182E+01
   0.170  0.5081E+00  0.3187E+01
   0.180  0.5046E+00  0.3192E+01
   0.190  0.5011E+00  0.3197E+01
   0.200  0.4976E+00  0.3202E+01
   0.210  0.4942E+00  0.3207E+01
   0.220  0.4908E+00  0.3212E+01
   0.230  0.4875E+00  0.3217E+01
   0.240  0.4841E+00  0.3222E+01
   0.250  0.4808E+00  0.3227E+01
   0.260  0.4775E+00  0.3232E+01
   0.270  0.4743E+00  0.3236E+01
   0.280  0.4710E+00  0.3241E+01
   0.290  0.4679E+00  0.3246E+01
   0.300  0.4647E+00  0.3251E+01
   0.310  0.4616E+00  0.3255E+01
   0.320  0.4585E+00  0.3260E+01
   0.330  0.4554E+00  0.3264E+01
   0.340  0.4523E+00  0.3269E+01
   0.350  0.4493E+00  0.3273E+01
   0.360  0.4475E+00  0.3278E+01
   0.370  0.4463E+00  0.3282E+01
   0.380  0.4438E+00  0.3287E+01
   0.390  0.4413E+00  0.3291E+01
   0.400  0.4387E+00  0.3296E+01
   0.410  0.4362E+00  0.3300E+01
   0.420  0.4336E+00  0.3304E+01
   0.430  0.4311E+00  0.3309E+01
   0.440  0.4285E+00  0.3313E+01
   0.450  0.4259E+00  0.3317E+01
   0.460  0.4233E+00  0.3322E+01
   0.470  0.4207E+00  0.3326E+01
   0.480  0.4181E+00  0.3330E+01
   0.490  0.4154E+00  0.3334E+01
   0.500  0.4127E+00  0.3338E+01
   0.510  0.4101E+00  0.3342E+01
   0.520  0.4074E+00  0.3346E+01
   0.530  0.4047E+00  0.3350E+01
   0.540  0.4020E+00  0.3355E+01
   0.550  0.3993E+00  0.3359E+01
   0.560  0.3966E+00  0.3363E+01
   0.570  0.3940E+00  0.3366E+01
   0.580  0.3915E+00  0.3370E+01
   0.590  0.3889E+00  0.3374E+01
   0.600  0.3864E+00  0.3378E+01
   0.610  0.3839E+00  0.3382E+01
   0.620  0.3814E+00  0.3386E+01
   0.630  0.3790E+00  0.3390E+01
   0.640  0.3766E+00  0.3393E+01
   0.650  0.3742E+00  0.3397E+01
   0.660  0.3718E+00  0.3401E+01
   0.670  0.3695E+00  0.3405E+01
   0.680  0.3672E+00  0.3408E+01
   0.690  0.3649E+00  0.3412E+01
   0.700  0.3627E+00  0.3416E+01
   0.710  0.3605E+00  0.3419E+01
   0.720  0.3583E+00  0.3423E+01
   0.730  0.3561E+00  0.3426E+01
   0.740  0.3540E+00  0.3430E+01
   0.750  0.3519E+00  0.3433E+01
   0.760  0.3498E+00  0.3437E+01
   0.770  0.3477E+00  0.3440E+01
   0.780  0.3457E+00  0.3444E+01
   0.790  0.3437E+00  0.3447E+01
   0.800  0.3416E+00  0.3451E+01
   0.810  0.3396E+00  0.3454E+01
   0.820  0.3376E+00  0.3458E+01
   0.830  0.3356E+00  0.3461E+01
   0.840  0.3336E+00  0.3464E+01
   0.850  0.3316E+00  0.3468E+01
   0.860  0.3297E+00  0.3471E+01
   0.870  0.3278E+00  0.3474E+01
   0.880  0.3259E+00  0.3477E+01
   0.890  0.3240E+00  0.3481E+01
   0.900  0.3221E+00  0.3484E+01
   0.910  0.3203E+00  0.3487E+01
   0.920  0.3185E+00  0.3490E+01
   0.930  0.3167E+00  0.3494E+01
   0.940  0.3150E+00  0.3497E+01
   0.950  0.3132E+00  0.3500E+01
   0.960  0.3115E+00  0.3503E+01
   0.970  0.3098E+00  0.3506E+01
   0.980  0.3081E+00  0.3509E+01
   0.990  0.3065E+00  0.3512E+01
   1.000  0.3049E+00  0.3515E+01
   1.010  0.3033E+00  0.3518E+01
   1.020  0.3017E+00  0.3521E+01
   1.030  0.3001E+00  0.3524E+01
   1.040  0.2986E+00  0.3527E+01
   1.050  0.2973E+00  0.3530E+01
   1.060  0.2959E+00  0.3533E+01
   1.070  0.2945E+00  0.3536E+01
   1.080  0.2932E+00  0.3539E+01
   1.090  0.2918E+00  0.3542E+01
   1.100  0.2904E+00  0.3545E+01
   1.110  0.2890E+00  0.3548E+01
   1.120  0.2877E+00  0.3551E+01
   1.130  0.2863E+00  0.3554E+01
   1.140  0.2849E+00  0.3557E+01
   1.150  0.2835E+00  0.3559E+01
   1.160  0.2821E+00  0.3562E+01
   1.170  0.2811E+00  0.3565E+01
   1.180  0.2801E+00  0.3568E+01
   1.190  0.2790E+00  0.3571E+01
   1.200  0.2779E+00  0.3573E+01
   1.210  0.2767E+00  0.3576E+01
   1.220  0.2755E+00  0.3579E+01
   1.230  0.2743E+00  0.3582E+01
   1.240  0.2730E+00  0.3584E+01
   1.250  0.2717E+00  0.3587E+01
   1.260  0.2704E+00  0.3590E+01
   1.270  0.2690E+00  0.3593E+01
   1.280  0.2676E+00  0.3595E+01
   1.290  0.2662E+00  0.3598E+01
   1.300  0.2647E+00  0.3601E+01
   1.310  0.2632E+00  0.3603E+01
   1.320  0.2616E+00  0.3606E+01
   1.330  0.2598E+00  0.3608E+01
   1.340  0.2581E+00  0.3611E+01
   1.350  0.2564E+00  0.3614E+01
   1.360  0.2547E+00  0.3616E+01
   1.370  0.2530E+00  0.3619E+01
   1.380  0.2513E+00  0.3621E+01
   1.390  0.2497E+00  0.3624E+01
   1.400  0.2480E+00  0.3626E+01
   1.410  0.2464E+00  0.3629E+01
   1.420  0.2448E+00  0.3631E+01
   1.430  0.2432E+00  0.3634E+01
   1.440  0.2416E+00  0.3636E+01
   1.450  0.2401E+00  0.3638E+01
   1.460  0.2385E+00  0.3641E+01
   1.470  0.2370E+00  0.3643E+01
   1.480  0.2355E+00  0.3646E+01
   1.490  0.2340E+00  0.3648E+01
   1.500  0.2325E+00  0.3650E+01
   1.510  0.2310E+00  0.3653E+01
   1.520  0.2296E+00  0.3655E+01
   1.530  0.2281E+00  0.3657E+01
   1.540  0.2267E+00  0.3659E+01
   1.550  0.2253E+00  0.3662E+01
   1.560  0.2239E+00  0.3664E+01
   1.570  0.2221E+00  0.3666E+01
   1.580  0.2209E+00  0.3668E+01
   1.590  0.2198E+00  0.3671E+01
   1.600  0.2187E+00  0.3673E+01
   1.610  0.2176E+00  0.3675E+01
   1.620  0.2165E+00  0.3677E+01
   1.630  0.2154E+00  0.3679E+01
   1.640  0.2143E+00  0.3681E+01
   1.650  0.2133E+00  0.3684E+01
   1.660  0.2122E+00  0.3686E+01
   1.670  0.2111E+00  0.3688E+01
   1.680  0.2111E+00  0.3690E+01
   1.690  0.2127E+00  0.3692E+01
   1.700  0.2159E+00  0.3694E+01
   1.710  0.2207E+00  0.3696E+01
   1.720  0.2272E+00  0.3699E+01
   1.730  0.2353E+00  0.3701E+01
   1.740  0.2450E+00  0.3703E+01
   1.750  0.2564E+00  0.3706E+01
   1.760  0.2694E+00  0.3708E+01
   1.770  0.2840E+00  0.3711E+01
   1.780  0.3002E+00  0.3714E+01
   1.790  0.3181E+00  0.3717E+01
   1.800  0.3376E+00  0.3720E+01
   1.810  0.3588E+00  0.3724E+01
   1.820  0.3815E+00  0.3728E+01
   1.830  0.4281E+00  0.3732E+01
   1.840  0.6158E+00  0.3737E+01
   1.850  0.6893E+00  0.3744E+01
   1.860  0.7448E+00  0.3751E+01
   1.870  0.7892E+00  0.3759E+01
   1.880  0.8457E+00  0.3767E+01
   1.890  0.8993E+00  0.3775E+01
   1.900  0.9499E+00  0.3785E+01
   1.910  0.9976E+00  0.3794E+01
   1.920  0.1042E+01  0.3805E+01
   1.930  0.1079E+01  0.3815E+01
   1.940  0.1113E+01  0.3826E+01
   1.950  0.1146E+01  0.3837E+01
   1.960  0.1178E+01  0.3849E+01
   1.970  0.1209E+01  0.3861E+01
   1.980  0.1239E+01  0.3873E+01
   1.990  0.1269E+01  0.3886E+01
   2.000  0.1280E+01  0.3899E+01
   2.010  0.1288E+01  0.3911E+01
   2.020  0.1294E+01  0.3924E+01
   2.030  0.1298E+01  0.3937E+01
   2.040  0.1300E+01  0.3950E+01
   2.050  0.1300E+01  0.3963E+01
   2.060  0.1293E+01  0.3976E+01
   2.070  0.1285E+01  0.3989E+01
   2.080  0.1276E+01  0.4002E+01
   2.090  0.1267E+01  0.4015E+01
   2.100  0.1257E+01  0.4027E+01
   2.110  0.1246E+01  0.4040E+01
   2.120  0.1235E+01  0.4052E+01
   2.130  0.1224E+01  0.4064E+01
   2.140  0.1213E+01  0.4077E+01
   2.150  0.1203E+01  0.4089E+01
   2.160  0.1196E+01  0.4101E+01
   2.170  0.1190E+01  0.4113E+01
   2.180  0.1185E+01  0.4125E+01
   2.190  0.1180E+01  0.4136E+01
   2.200  0.1176E+01  0.4148E+01
   2.210  0.1172E+01  0.4160E+01
   2.220  0.1169E+01  0.4172E+01
   2.230  0.1165E+01  0.4183E+01
   2.240  0.1162E+01  0.4195E+01
   2.250  0.1159E+01  0.4206E+01
   2.260  0.1157E+01  0.4218E+01
   2.270  0.1154E+01  0.4230E+01
   2.280  0.1152E+01  0.4241E+01
   2.290  0.1150E+01  0.4253E+01
   2.300  0.1150E+01  0.4264E+01
   2.310  0.1171E+01  0.4276E+01
   2.320  0.1170E+01  0.4288E+01
   2.330  0.1152E+01  0.4299E+01
   2.340  0.1136E+01  0.4311E+01
   2.350  0.1122E+01  0.4322E+01
   2.360  0.1109E+01  0.4333E+01
   2.370  0.1098E+01  0.4344E+01
   2.380  0.1089E+01  0.4355E+01
   2.390  0.1081E+01  0.4366E+01
   2.400  0.1075E+01  0.4377E+01
   2.410  0.1070E+01  0.4387E+01
   2.420  0.1068E+01  0.4398E+01
   2.430  0.1065E+01  0.4409E+01
   2.440  0.1063E+01  0.4419E+01
   2.450  0.1061E+01  0.4430E+01
   2.460  0.1060E+01  0.4441E+01
   2.470  0.1058E+01  0.4451E+01
   2.480  0.1059E+01  0.4462E+01
   2.490  0.1065E+01  0.4472E+01
   2.500  0.1068E+01  0.4483E+01
   2.510  0.1067E+01  0.4494E+01
   2.520  0.1060E+01  0.4504E+01
   2.530  0.1048E+01  0.4515E+01
   2.540  0.1034E+01  0.4525E+01
   2.550  0.1031E+01  0.4536E+01
   2.560  0.1030E+01  0.4546E+01
   2.570  0.1031E+01  0.4556E+01
   2.580  0.1033E+01  0.4567E+01
   2.590  0.1035E+01  0.4577E+01
   2.600  0.1038E+01  0.4587E+01
   2.610  0.1040E+01  0.4598E+01
   2.620  0.1042E+01  0.4608E+01
   2.630  0.1043E+01  0.4618E+01
   2.640  0.1044E+01  0.4629E+01
   2.650  0.1046E+01  0.4639E+01
   2.660  0.1047E+01  0.4650E+01
   2.670  0.1050E+01  0.4660E+01
   2.680  0.1052E+01  0.4671E+01
   2.690  0.1055E+01  0.4681E+01
   2.700  0.1058E+01  0.4692E+01
   2.710  0.1062E+01  0.4702E+01
   2.720  0.1065E+01  0.4713E+01
   2.730  0.1070E+01  0.4724E+01
   2.740  0.1074E+01  0.4735E+01
   2.750  0.1079E+01  0.4745E+01
   2.760  0.1084E+01  0.4756E+01
   2.770  0.1088E+01  0.4767E+01
   2.780  0.1093E+01  0.4778E+01
   2.790  0.1098E+01  0.4789E+01
   2.800  0.1103E+01  0.4800E+01
   2.810  0.1109E+01  0.4811E+01
   2.820  0.1115E+01  0.4822E+01
   2.830  0.1121E+01  0.4833E+01
   2.840  0.1127E+01  0.4844E+01
   2.850  0.1134E+01  0.4856E+01
   2.860  0.1141E+01  0.4867E+01
   2.870  0.1147E+01  0.4879E+01
   2.880  0.1374E+01  0.4891E+01
   2.890  0.1238E+01  0.4904E+01
   2.900  0.1238E+01  0.4917E+01
   2.910  0.1236E+01  0.4929E+01
   2.920  0.1231E+01  0.4941E+01
   2.930  0.1234E+01  0.4954E+01
   2.940  0.1241E+01  0.4966E+01
   2.950  0.1248E+01  0.4978E+01
   2.960  0.1255E+01  0.4991E+01
   2.970  0.1261E+01  0.5003E+01
   2.980  0.1270E+01  0.5016E+01
   2.990  0.1280E+01  0.5029E+01
   3.000  0.1290E+01  0.5042E+01
   3.010  0.1300E+01  0.5055E+01
   3.020  0.1310E+01  0.5068E+01
   3.030  0.1321E+01  0.5081E+01
   3.040  0.1332E+01  0.5094E+01
   3.050  0.1342E+01  0.5108E+01
   3.060  0.1353E+01  0.5121E+01
   3.070  0.1365E+01  0.5135E+01
   3.080  0.1379E+01  0.5148E+01
   3.090  0.1396E+01  0.5162E+01
   3.100  0.1415E+01  0.5176E+01
   3.110  0.1435E+01  0.5190E+01
   3.120  0.1457E+01  0.5205E+01
   3.130  0.1475E+01  0.5220E+01
   3.140  0.1499E+01  0.5234E+01
   3.150  0.1537E+01  0.5250E+01
   3.160  0.1570E+01  0.5265E+01
   3.170  0.1599E+01  0.5281E+01
   3.180  0.1608E+01  0.5297E+01
   3.190  0.1606E+01  0.5313E+01
   3.200  0.1592E+01  0.5329E+01
   3.210  0.1596E+01  0.5345E+01
   3.220  0.1602E+01  0.5361E+01
   3.230  0.1606E+01  0.5377E+01
   3.240  0.1608E+01  0.5393E+01
   3.250  0.1607E+01  0.5409E+01
   3.260  0.1600E+01  0.5425E+01
   3.270  0.1572E+01  0.5441E+01
   3.280  0.1553E+01  0.5457E+01
   3.290  0.1543E+01  0.5472E+01
   3.300  0.1540E+01  0.5488E+01
   3.310  0.1538E+01  0.5503E+01
   3.320  0.1536E+01  0.5518E+01
   3.330  0.1535E+01  0.5534E+01
   3.340  0.1535E+01  0.5549E+01
   3.350  0.1536E+01  0.5565E+01
   3.360  0.1537E+01  0.5580E+01
   3.370  0.1539E+01  0.5595E+01
   3.380  0.1542E+01  0.5611E+01
   3.390  0.1545E+01  0.5626E+01
   3.400  0.1547E+01  0.5642E+01
   3.410  0.1573E+01  0.5657E+01
   3.420  0.1606E+01  0.5673E+01
   3.430  0.1597E+01  0.5689E+01
   3.440  0.1588E+01  0.5705E+01
   3.450  0.1578E+01  0.5721E+01
   3.460  0.1569E+01  0.5737E+01
   3.470  0.1564E+01  0.5752E+01
   3.480  0.1559E+01  0.5768E+01
   3.490  0.1550E+01  0.5783E+01
   3.500  0.1542E+01  0.5799E+01
   3.510  0.1534E+01  0.5814E+01
   3.520  0.1527E+01  0.5830E+01
   3.530  0.1521E+01  0.5845E+01
   3.540  0.1515E+01  0.5860E+01
   3.550  0.1509E+01  0.5875E+01
   3.560  0.1504E+01  0.5890E+01
   3.570  0.1499E+01  0.5905E+01
   3.580  0.1495E+01  0.5920E+01
   3.590  0.1480E+01  0.5935E+01
   3.600  0.1477E+01  0.5950E+01
   3.610  0.1473E+01  0.5965E+01
   3.620  0.1471E+01  0.5979E+01
   3.630  0.1473E+01  0.5994E+01
   3.640  0.1476E+01  0.6009E+01
   3.650  0.1482E+01  0.6024E+01
   3.660  0.1489E+01  0.6038E+01
   3.670  0.1498E+01  0.6053E+01
   3.680  0.1507E+01  0.6068E+01
   3.690  0.1496E+01  0.6083E+01
   3.700  0.1462E+01  0.6098E+01
   3.710  0.1451E+01  0.6113E+01
   3.720  0.1446E+01  0.6127E+01
   3.730  0.1441E+01  0.6142E+01
   3.740  0.1437E+01  0.6156E+01
   3.750  0.1432E+01  0.6170E+01
   3.760  0.1427E+01  0.6185E+01
   3.770  0.1422E+01  0.6199E+01
   3.780  0.1418E+01  0.6213E+01
   3.790  0.1413E+01  0.6227E+01
   3.800  0.1409E+01  0.6241E+01
   3.810  0.1405E+01  0.6255E+01
   3.820  0.1401E+01  0.6269E+01
   3.830  0.1399E+01  0.6283E+01
   3.840  0.1398E+01  0.6297E+01
   3.850  0.1398E+01  0.6311E+01
   3.860  0.1400E+01  0.6325E+01
   3.870  0.1404E+01  0.6339E+01
   3.880  0.1409E+01  0.6354E+01
   3.890  0.1430E+01  0.6368E+01
   3.900  0.1419E+01  0.6382E+01
   3.910  0.1411E+01  0.6396E+01
   3.920  0.1405E+01  0.6410E+01
   3.930  0.1399E+01  0.6424E+01
   3.940  0.1394E+01  0.6438E+01
   3.950  0.1389E+01  0.6452E+01
   3.960  0.1385E+01  0.6466E+01
   3.970  0.1382E+01  0.6480E+01
   3.980  0.1379E+01  0.6494E+01
   3.990  0.1377E+01  0.6507E+01
   4.000  0.1376E+01  0.6521E+01
   4.010  0.1374E+01  0.6535E+01
   4.020  0.1374E+01  0.6549E+01
   4.030  0.1373E+01  0.6562E+01
   4.040  0.1372E+01  0.6576E+01
   4.050  0.1372E+01  0.6590E+01
   4.060  0.1370E+01  0.6604E+01
   4.070  0.1367E+01  0.6617E+01
   4.080  0.1364E+01  0.6631E+01
   4.090  0.1361E+01  0.6645E+01
   4.100  0.1359E+01  0.6658E+01
   4.110  0.1356E+01  0.6672E+01
   4.120  0.1352E+01  0.6685E+01
   4.130  0.1349E+01  0.6699E+01
   4.140  0.1379E+01  0.6712E+01
   4.150  0.1402E+01  0.6726E+01
   4.160  0.1415E+01  0.6740E+01
   4.170  0.1415E+01  0.6755E+01
   4.180  0.1411E+01  0.6769E+01
   4.190  0.1402E+01  0.6783E+01
   4.200  0.1389E+01  0.6797E+01
   4.210  0.1372E+01  0.6810E+01
   4.220  0.1350E+01  0.6824E+01
   4.230  0.1340E+01  0.6838E+01
   4.240  0.1335E+01  0.6851E+01
   4.250  0.1331E+01  0.6864E+01
   4.260  0.1327E+01  0.6878E+01
   4.270  0.1322E+01  0.6891E+01
   4.280  0.1318E+01  0.6904E+01
   4.290  0.1314E+01  0.6917E+01
   4.300  0.1311E+01  0.6930E+01
   4.310  0.1307E+01  0.6943E+01
   4.320  0.1304E+01  0.6956E+01
   4.330  0.1301E+01  0.6969E+01
   4.340  0.1297E+01  0.6982E+01
   4.350  0.1295E+01  0.6995E+01
   4.360  0.1292E+01  0.7008E+01
   4.370  0.1304E+01  0.7021E+01
   4.380  0.1321E+01  0.7034E+01
   4.390  0.1338E+01  0.7048E+01
   4.400  0.1351E+01  0.7061E+01
   4.410  0.1355E+01  0.7075E+01
   4.420  0.1349E+01  0.7088E+01
   4.430  0.1341E+01  0.7102E+01
   4.440  0.1332E+01  0.7115E+01
   4.450  0.1322E+01  0.7128E+01
   4.460  0.1309E+01  0.7141E+01
   4.470  0.1297E+01  0.7154E+01
   4.480  0.1290E+01  0.7167E+01
   4.490  0.1284E+01  0.7180E+01
   4.500  0.1279E+01  0.7193E+01
   4.510  0.1273E+01  0.7206E+01
   4.520  0.1268E+01  0.7219E+01
   4.530  0.1262E+01  0.7231E+01
   4.540  0.1256E+01  0.7244E+01
   4.550  0.1250E+01  0.7256E+01
   4.560  0.1244E+01  0.7269E+01
   4.570  0.1238E+01  0.7281E+01
   4.580  0.1231E+01  0.7294E+01
   4.590  0.1224E+01  0.7306E+01
   4.600  0.1217E+01  0.7318E+01
   4.610  0.1222E+01  0.7330E+01
   4.620  0.1231E+01  0.7342E+01
   4.630  0.1242E+01  0.7355E+01
   4.640  0.1238E+01  0.7367E+01
   4.650  0.1233E+01  0.7380E+01
   4.660  0.1226E+01  0.7392E+01
   4.670  0.1218E+01  0.7404E+01
   4.680  0.1208E+01  0.7416E+01
   4.690  0.1196E+01  0.7428E+01
   4.700  0.1191E+01  0.7440E+01
   4.710  0.1186E+01  0.7452E+01
   4.720  0.1172E+01  0.7464E+01
   4.730  0.1152E+01  0.7476E+01
   4.740  0.1129E+01  0.7487E+01
   4.750  0.1105E+01  0.7498E+01
   4.760  0.1079E+01  0.7509E+01
   4.770  0.1052E+01  0.7520E+01
   4.780  0.1022E+01  0.7530E+01
   4.790  0.9912E+00  0.7540E+01
   4.800  0.9606E+00  0.7550E+01
   4.810  0.9305E+00  0.7559E+01
   4.820  0.9035E+00  0.7568E+01
   4.830  0.8798E+00  0.7577E+01
   4.840  0.8592E+00  0.7586E+01
   4.850  0.8418E+00  0.7595E+01
   4.860  0.8264E+00  0.7603E+01
   4.870  0.8113E+00  0.7611E+01
   4.880  0.7964E+00  0.7619E+01
   4.890  0.7818E+00  0.7627E+01
   4.900  0.7675E+00  0.7635E+01
   4.910  0.7537E+00  0.7642E+01
   4.920  0.7402E+00  0.7650E+01
   4.930  0.7270E+00  0.7657E+01
   4.940  0.7142E+00  0.7664E+01
   4.950  0.7017E+00  0.7671E+01
   4.960  0.6895E+00  0.7678E+01
   4.970  0.6776E+00  0.7685E+01
   4.980  0.6661E+00  0.7692E+01
   4.990  0.6550E+00  0.7699E+01
   5.000  0.6360E+00  0.7705E+01
   5.010  0.6200E+00  0.7711E+01
   5.020  0.6179E+00  0.7718E+01
   5.030  0.6175E+00  0.7724E+01
   5.040  0.6166E+00  0.7730E+01
   5.050  0.6152E+00  0.7736E+01
   5.060  0.6133E+00  0.7742E+01
   5.070  0.6058E+00  0.7748E+01
   5.080  0.5971E+00  0.7754E+01
   5.090  0.5886E+00  0.7760E+01
   5.100  0.5800E+00  0.7766E+01
   5.110  0.5716E+00  0.7772E+01
   5.120  0.5632E+00  0.7777E+01
   5.130  0.5581E+00  0.7783E+01
   5.140  0.5558E+00  0.7789E+01
   5.150  0.5685E+00  0.7794E+01
   5.160  0.5733E+00  0.7800E+01
   5.170  0.5702E+00  0.7806E+01
   5.180  0.5591E+00  0.7811E+01
   5.190  0.5400E+00  0.7817E+01
   5.200  0.5130E+00  0.7822E+01
   5.210  0.4927E+00  0.7827E+01
   5.220  0.4822E+00  0.7832E+01
   5.230  0.4713E+00  0.7837E+01
   5.240  0.4597E+00  0.7841E+01
   5.250  0.4473E+00  0.7846E+01
   5.260  0.4340E+00  0.7850E+01
   5.270  0.4203E+00  0.7855E+01
   5.280  0.4103E+00  0.7859E+01
   5.290  0.4034E+00  0.7863E+01
   5.300  0.3977E+00  0.7867E+01
   5.310  0.3931E+00  0.7871E+01
   5.320  0.3906E+00  0.7875E+01
   5.330  0.3880E+00  0.7879E+01
   5.340  0.3852E+00  0.7883E+01
   5.350  0.3823E+00  0.7886E+01
   5.360  0.3792E+00  0.7890E+01
   5.370  0.3759E+00  0.7894E+01
   5.380  0.3725E+00  0.7898E+01
   5.390  0.3665E+00  0.7901E+01
   5.400  0.3600E+00  0.7905E+01
   5.410  0.3535E+00  0.7909E+01
   5.420  0.3469E+00  0.7912E+01
   5.430  0.3402E+00  0.7916E+01
   5.440  0.3335E+00  0.7919E+01
   5.450  0.3268E+00  0.7922E+01
   5.460  0.3200E+00  0.7925E+01
   5.470  0.3132E+00  0.7929E+01
   5.480  0.3063E+00  0.7932E+01
   5.490  0.2994E+00  0.7935E+01
   5.500  0.2924E+00  0.7938E+01
   5.510  0.2854E+00  0.7941E+01
   5.520  0.2783E+00  0.7943E+01
   5.530  0.2712E+00  0.7946E+01
   5.540  0.2640E+00  0.7949E+01
   5.550  0.2566E+00  0.7951E+01
   5.560  0.2487E+00  0.7954E+01
   5.570  0.2402E+00  0.7956E+01
   5.580  0.2314E+00  0.7959E+01
   5.590  0.2225E+00  0.7961E+01
   5.600  0.2135E+00  0.7963E+01
   5.610  0.2044E+00  0.7965E+01
   5.620  0.1951E+00  0.7967E+01
   5.630  0.1860E+00  0.7969E+01
   5.640  0.1808E+00  0.7971E+01
   5.650  0.1753E+00  0.7973E+01
   5.660  0.1698E+00  0.7975E+01
   5.670  0.1643E+00  0.7976E+01
   5.680  0.1587E+00  0.7978E+01
   5.690  0.1531E+00  0.7979E+01
   5.700  0.1475E+00  0.7981E+01
   5.710  0.1418E+00  0.7982E+01
   5.720  0.1361E+00  0.7984E+01
   5.730  0.1303E+00  0.7985E+01
   5.740  0.1245E+00  0.7986E+01
   5.750  0.1187E+00  0.7988E+01
   5.760  0.1128E+00  0.7989E+01
   5.770  0.1070E+00  0.7990E+01
   5.780  0.1010E+00  0.7991E+01
   5.790  0.9505E-01  0.7992E+01
   5.800  0.8905E-01  0.7993E+01
   5.810  0.8301E-01  0.7994E+01
   5.820  0.7693E-01  0.7994E+01
   5.830  0.7082E-01  0.7995E+01
   5.840  0.6466E-01  0.7996E+01
   5.850  0.1159E+00  0.7997E+01
   5.860  0.9179E-01  0.7998E+01
   5.870  0.4358E-01  0.7998E+01
   5.880  0.3621E-01  0.7999E+01
   5.890  0.2952E-01  0.7999E+01
   5.900  0.2352E-01  0.7999E+01
   5.910  0.1819E-01  0.8000E+01
   5.920  0.1355E-01  0.8000E+01
   5.930  0.9595E-02  0.8000E+01
   5.940  0.6319E-02  0.8000E+01
   5.950  0.3726E-02  0.8000E+01
   5.960  0.1816E-02  0.8000E+01
   5.970  0.5886E-03  0.8000E+01
   5.980  0.4296E-04  0.8000E+01
   5.990  0.0000E+00  0.8000E+01
   6.000  0.0000E+00  0.8000E+01
   6.010  0.0000E+00  0.8000E+01
   6.020  0.0000E+00  0.8000E+01
   6.030  0.0000E+00  0.8000E+01
   6.040  0.0000E+00  0.8000E+01
   6.050  0.0000E+00  0.8000E+01
   6.060  0.0000E+00  0.8000E+01
   6.070  0.0000E+00  0.8000E+01
   6.080  0.0000E+00  0.8000E+01
   6.090  0.0000E+00  0.8000E+01
   6.100  0.0000E+00  0.8000E+01
   6.110  0.0000E+00  0.8000E+01
   6.120  0.0000E+00  0.8000E+01
   6.130  0.0000E+00  0.8000E+01
   6.140  0.0000E+00  0.8000E+01
   6.150  0.0000E+00  0.8000E+01
   6.160  0.0000E+00  0.8000E+01
   6.170  0.0000E+00  0.8000E+01
   6.180  0.0000E+00  0.8000E+01
   6.190  0.0000E+00  0.8000E+01
   6.200  0.0000E+00  0.8000E+01
   6.210  0.0000E+00  0.8000E+01
   6.220  0.0000E+00  0.8000E+01
   6.230  0.0000E+00  0.8000E+01
   6.240  0.0000E+00  0.8000E+01
   6.250  0.0000E+00  0.8000E+01
   6.260  0.0000E+00  0.8000E+01
   6.270  0.0000E+00  0.8000E+01
   6.280  0.0000E+00  0.8000E+01
   6.290  0.0000E+00  0.8000E+01
   6.300  0.0000E+00  0.8000E+01
   6.310  0.0000E+00  0.8000E+01
   6.320  0.0000E+00  0.8000E+01
   6.330  0.0000E+00  0.8000E+01
   6.340  0.0000E+00  0.8000E+01
   6.350  0.0000E+00  0.8000E+01
   6.360  0.0000E+00  0.8000E+01
   6.370  0.0000E+00  0.8000E+01
   6.380  0.0000E+00  0.8000E+01
   6.390  0.0000E+00  0.8000E+01
   6.400  0.0000E+00  0.8000E+01
   6.410  0.0000E+00  0.8000E+01
   6.420  0.0000E+00  0.8000E+01
   6.430  0.0000E+00  0.8000E+01
   6.440  0.0000E+00  0.8000E+01
   6.450  0.0000E+00  0.8000E+01
   6.460  0.0000E+00  0.8000E+01
   6.470  0.0000E+00  0.8000E+01
   6.480  0.0000E+00  0.8000E+01
   6.490  0.0000E+00  0.8000E+01
   6.500  0.0000E+00  0.8000E+01
   6.510  0.0000E+00  0.8000E+01
   6.520  0.0000E+00  0.8000E+01
   6.530  0.0000E+00  0.8000E+01
   6.540  0.0000E+00  0.8000E+01
   6.550  0.0000E+00  0.8000E+01
   6.560  0.0000E+00  0.8000E+01
   6.570  0.0000E+00  0.8000E+01
   6.580  0.0000E+00  0.8000E+01
   6.590  0.0000E+00  0.8000E+01
   6.600  0.1555E-03  0.8000E+01
   6.610  0.7696E-03  0.8000E+01
   6.620  0.1850E-02  0.8000E+01
   6.630  0.3397E-02  0.8000E+01
   6.640  0.5410E-02  0.8000E+01
   6.650  0.7890E-02  0.8000E+01
   6.660  0.1084E-01  0.8000E+01
   6.670  0.1425E-01  0.8000E+01
   6.680  0.1813E-01  0.8001E+01
   6.690  0.2247E-01  0.8001E+01
   6.700  0.2728E-01  0.8001E+01
   6.710  0.3256E-01  0.8001E+01
   6.720  0.3831E-01  0.8002E+01
   6.730  0.4452E-01  0.8002E+01
   6.740  0.5164E-01  0.8003E+01
   6.750  0.6090E-01  0.8003E+01
   6.760  0.7238E-01  0.8004E+01
   6.770  0.8608E-01  0.8005E+01
   6.780  0.1020E+00  0.8005E+01
   6.790  0.1201E+00  0.8007E+01
   6.800  0.1312E+00  0.8008E+01
   6.810  0.1364E+00  0.8009E+01
   6.820  0.1420E+00  0.8011E+01
   6.830  0.1480E+00  0.8012E+01
   6.840  0.1542E+00  0.8014E+01
   6.850  0.1608E+00  0.8015E+01
   6.860  0.1678E+00  0.8017E+01
   6.870  0.1750E+00  0.8018E+01
   6.880  0.1826E+00  0.8020E+01
   6.890  0.1906E+00  0.8022E+01
   6.900  0.1989E+00  0.8024E+01
   6.910  0.2047E+00  0.8026E+01
   6.920  0.2100E+00  0.8028E+01
   6.930  0.2155E+00  0.8030E+01
   6.940  0.2212E+00  0.8032E+01
   6.950  0.2270E+00  0.8035E+01
   6.960  0.2330E+00  0.8037E+01
   6.970  0.2390E+00  0.8039E+01
   6.980  0.2450E+00  0.8042E+01
   6.990  0.2511E+00  0.8044E+01
   7.000  0.2573E+00  0.8047E+01
   7.010  0.2634E+00  0.8049E+01
   7.020  0.2697E+00  0.8052E+01
   7.030  0.2760E+00  0.8055E+01
   7.040  0.2823E+00  0.8058E+01
   7.050  0.2887E+00  0.8060E+01
   7.060  0.2952E+00  0.8063E+01
   7.070  0.3017E+00  0.8066E+01
   7.080  0.3082E+00  0.8069E+01
   7.090  0.3148E+00  0.8073E+01
   7.100  0.3214E+00  0.8076E+01
   7.110  0.3279E+00  0.8079E+01
   7.120  0.3345E+00  0.8082E+01
   7.130  0.3411E+00  0.8086E+01
   7.140  0.3479E+00  0.8089E+01
   7.150  0.3555E+00  0.8093E+01
   7.160  0.3639E+00  0.8096E+01
   7.170  0.3731E+00  0.8100E+01
   7.180  0.3831E+00  0.8104E+01
   7.190  0.3939E+00  0.8108E+01
   7.200  0.4055E+00  0.8112E+01
   7.210  0.4183E+00  0.8116E+01
   7.220  0.4293E+00  0.8120E+01
   7.230  0.4373E+00  0.8124E+01
   7.240  0.4462E+00  0.8129E+01
   7.250  0.4558E+00  0.8133E+01
   7.260  0.4659E+00  0.8138E+01
   7.270  0.4767E+00  0.8143E+01
   7.280  0.4881E+00  0.8147E+01
   7.290  0.5003E+00  0.8152E+01
   7.300  0.5131E+00  0.8157E+01
   7.310  0.5266E+00  0.8163E+01
   7.320  0.5408E+00  0.8168E+01
   7.330  0.5556E+00  0.8173E+01
   7.340  0.6646E+00  0.8179E+01
   7.350  0.6245E+00  0.8186E+01
   7.360  0.5330E+00  0.8191E+01
   7.370  0.5377E+00  0.8197E+01
   7.380  0.5422E+00  0.8202E+01
   7.390  0.5467E+00  0.8208E+01
   7.400  0.5521E+00  0.8213E+01
   7.410  0.5574E+00  0.8219E+01
   7.420  0.5626E+00  0.8224E+01
   7.430  0.5676E+00  0.8230E+01
   7.440  0.5725E+00  0.8236E+01
   7.450  0.5774E+00  0.8241E+01
   7.460  0.5826E+00  0.8247E+01
   7.470  0.5880E+00  0.8253E+01
   7.480  0.5936E+00  0.8259E+01
   7.490  0.5995E+00  0.8265E+01
   7.500  0.6057E+00  0.8271E+01
   7.510  0.6120E+00  0.8277E+01
   7.520  0.6185E+00  0.8283E+01
   7.530  0.6251E+00  0.8289E+01
   7.540  0.6318E+00  0.8296E+01
   7.550  0.6388E+00  0.8302E+01
   7.560  0.6460E+00  0.8308E+01
   7.570  0.6534E+00  0.8315E+01
   7.580  0.6609E+00  0.8322E+01
   7.590  0.6686E+00  0.8328E+01
   7.600  0.6764E+00  0.8335E+01
   7.610  0.6844E+00  0.8342E+01
   7.620  0.6925E+00  0.8349E+01
   7.630  0.7007E+00  0.8356E+01
   7.640  0.7091E+00  0.8363E+01
   7.650  0.7176E+00  0.8370E+01
   7.660  0.7263E+00  0.8377E+01
   7.670  0.7351E+00  0.8384E+01
   7.680  0.7440E+00  0.8392E+01
   7.690  0.7531E+00  0.8399E+01
   7.700  0.7689E+00  0.8407E+01
   7.710  0.8175E+00  0.8415E+01
   7.720  0.8420E+00  0.8423E+01
   7.730  0.8458E+00  0.8431E+01
   7.740  0.8487E+00  0.8440E+01
   7.750  0.8522E+00  0.8448E+01
   7.760  0.8560E+00  0.8457E+01
   7.770  0.8592E+00  0.8466E+01
   7.780  0.8635E+00  0.8474E+01
   7.790  0.8760E+00  0.8483E+01
   7.800  0.8886E+00  0.8492E+01
   7.810  0.9012E+00  0.8501E+01
   7.820  0.9139E+00  0.8510E+01
   7.830  0.9267E+00  0.8519E+01
   7.840  0.9396E+00  0.8528E+01
   7.850  0.9526E+00  0.8538E+01
   7.860  0.9656E+00  0.8547E+01
   7.870  0.9787E+00  0.8557E+01
   7.880  0.9908E+00  0.8567E+01
   7.890  0.1004E+01  0.8577E+01
   7.900  0.1017E+01  0.8587E+01
   7.910  0.1030E+01  0.8597E+01
   7.920  0.1044E+01  0.8608E+01
   7.930  0.1059E+01  0.8618E+01
   7.940  0.1073E+01  0.8629E+01
   7.950  0.1089E+01  0.8640E+01
   7.960  0.1107E+01  0.8651E+01
   7.970  0.1374E+01  0.8663E+01
   7.980  0.1438E+01  0.8677E+01
   7.990  0.1394E+01  0.8691E+01
   8.000  0.1419E+01  0.8705E+01
   8.010  0.1446E+01  0.8719E+01
   8.020  0.1482E+01  0.8734E+01
   8.030  0.1519E+01  0.8749E+01
   8.040  0.1546E+01  0.8764E+01
   8.050  0.1567E+01  0.8780E+01
   8.060  0.1586E+01  0.8796E+01
   8.070  0.1602E+01  0.8812E+01
   8.080  0.1616E+01  0.8828E+01
   8.090  0.1627E+01  0.8844E+01
   8.100  0.1636E+01  0.8860E+01
   8.110  0.1642E+01  0.8877E+01
   8.120  0.1651E+01  0.8893E+01
   8.130  0.1665E+01  0.8910E+01
   8.140  0.1679E+01  0.8927E+01
   8.150  0.1693E+01  0.8943E+01
   8.160  0.1707E+01  0.8960E+01
   8.170  0.1721E+01  0.8978E+01
   8.180  0.1735E+01  0.8995E+01
   8.190  0.1749E+01  0.9012E+01
   8.200  0.1763E+01  0.9030E+01
   8.210  0.1777E+01  0.9047E+01
   8.220  0.1792E+01  0.9065E+01
   8.230  0.1810E+01  0.9083E+01
   8.240  0.1828E+01  0.9101E+01
   8.250  0.1845E+01  0.9120E+01
   8.260  0.1862E+01  0.9138E+01
   8.270  0.2015E+01  0.9158E+01
   8.280  0.2160E+01  0.9179E+01
   8.290  0.2168E+01  0.9200E+01
   8.300  0.2132E+01  0.9222E+01
   8.310  0.2099E+01  0.9243E+01
   8.320  0.2092E+01  0.9264E+01
   8.330  0.2096E+01  0.9285E+01
   8.340  0.2097E+01  0.9306E+01
   8.350  0.2098E+01  0.9327E+01
   8.360  0.2094E+01  0.9348E+01
   8.370  0.2086E+01  0.9369E+01
   8.380  0.2076E+01  0.9389E+01
   8.390  0.2065E+01  0.9410E+01
   8.400  0.2052E+01  0.9431E+01
   8.410  0.2037E+01  0.9451E+01
   8.420  0.2021E+01  0.9471E+01
   8.430  0.2004E+01  0.9492E+01
   8.440  0.1985E+01  0.9512E+01
   8.450  0.1965E+01  0.9531E+01
   8.460  0.1943E+01  0.9551E+01
   8.470  0.1920E+01  0.9570E+01
   8.480  0.1896E+01  0.9589E+01
   8.490  0.1871E+01  0.9608E+01
   8.500  0.1844E+01  0.9627E+01
   8.510  0.1812E+01  0.9645E+01
   8.520  0.1768E+01  0.9663E+01
   8.530  0.1722E+01  0.9680E+01
   8.540  0.1686E+01  0.9697E+01
   8.550  0.1646E+01  0.9714E+01
   8.560  0.1605E+01  0.9730E+01
   8.570  0.1565E+01  0.9746E+01
   8.580  0.1525E+01  0.9762E+01
   8.590  0.1480E+01  0.9777E+01
   8.600  0.1447E+01  0.9791E+01
   8.610  0.1423E+01  0.9806E+01
   8.620  0.1397E+01  0.9820E+01
   8.630  0.1372E+01  0.9833E+01
   8.640  0.1344E+01  0.9847E+01
   8.650  0.1316E+01  0.9860E+01
   8.660  0.1290E+01  0.9873E+01
   8.670  0.1264E+01  0.9886E+01
   8.680  0.1240E+01  0.9899E+01
   8.690  0.1216E+01  0.9911E+01
   8.700  0.1194E+01  0.9923E+01
   8.710  0.1173E+01  0.9935E+01
   8.720  0.1152E+01  0.9946E+01
   8.730  0.1132E+01  0.9958E+01
   8.740  0.1112E+01  0.9969E+01
   8.750  0.1095E+01  0.9980E+01
   8.760  0.1077E+01  0.9991E+01
   8.770  0.1060E+01  0.1000E+02
   8.780  0.1043E+01  0.1001E+02
   8.790  0.1029E+01  0.1002E+02
   8.800  0.1016E+01  0.1003E+02
   8.810  0.1003E+01  0.1004E+02
   8.820  0.9901E+00  0.1005E+02
   8.830  0.9770E+00  0.1006E+02
   8.840  0.9638E+00  0.1007E+02
   8.850  0.9513E+00  0.1008E+02
   8.860  0.9392E+00  0.1009E+02
   8.870  0.9276E+00  0.1010E+02
   8.880  0.9165E+00  0.1011E+02
   8.890  0.9059E+00  0.1012E+02
   8.900  0.8958E+00  0.1013E+02
   8.910  0.8862E+00  0.1014E+02
   8.920  0.8770E+00  0.1015E+02
   8.930  0.8683E+00  0.1015E+02
   8.940  0.8626E+00  0.1016E+02
   8.950  0.8590E+00  0.1017E+02
   8.960  0.8562E+00  0.1018E+02
   8.970  0.8538E+00  0.1019E+02
   8.980  0.8518E+00  0.1020E+02
   8.990  0.8503E+00  0.1021E+02
   9.000  0.8487E+00  0.1021E+02
   9.010  0.8457E+00  0.1022E+02
   9.020  0.8423E+00  0.1023E+02
   9.030  0.8395E+00  0.1024E+02
   9.040  0.8371E+00  0.1025E+02
   9.050  0.8354E+00  0.1026E+02
   9.060  0.8342E+00  0.1026E+02
   9.070  0.8335E+00  0.1027E+02
   9.080  0.8333E+00  0.1028E+02
   9.090  0.8333E+00  0.1029E+02
   9.100  0.8336E+00  0.1030E+02
   9.110  0.8358E+00  0.1031E+02
   9.120  0.8637E+00  0.1031E+02
   9.130  0.9151E+00  0.1032E+02
   9.140  0.1300E+01  0.1033E+02
   9.150  0.1050E+01  0.1035E+02
   9.160  0.1031E+01  0.1036E+02
   9.170  0.1046E+01  0.1037E+02
   9.180  0.1080E+01  0.1038E+02
   9.190  0.1120E+01  0.1039E+02
   9.200  0.1167E+01  0.1040E+02
   9.210  0.1218E+01  0.1041E+02
   9.220  0.1273E+01  0.1042E+02
   9.230  0.1333E+01  0.1044E+02
   9.240  0.1398E+01  0.1045E+02
   9.250  0.1523E+01  0.1047E+02
   9.260  0.1649E+01  0.1048E+02
   9.270  0.1703E+01  0.1050E+02
   9.280  0.1753E+01  0.1052E+02
   9.290  0.1798E+01  0.1053E+02
   9.300  0.1840E+01  0.1055E+02
   9.310  0.1882E+01  0.1057E+02
   9.320  0.1922E+01  0.1059E+02
   9.330  0.1959E+01  0.1061E+02
   9.340  0.1992E+01  0.1063E+02
   9.350  0.2019E+01  0.1065E+02
   9.360  0.2037E+01  0.1067E+02
   9.370  0.2038E+01  0.1069E+02
   9.380  0.2016E+01  0.1071E+02
   9.390  0.2061E+01  0.1073E+02
   9.400  0.2109E+01  0.1075E+02
   9.410  0.2160E+01  0.1077E+02
   9.420  0.2214E+01  0.1079E+02
   9.430  0.2361E+01  0.1082E+02
   9.440  0.2247E+01  0.1084E+02
   9.450  0.2164E+01  0.1086E+02
   9.460  0.2103E+01  0.1088E+02
   9.470  0.2055E+01  0.1090E+02
   9.480  0.2016E+01  0.1092E+02
   9.490  0.1980E+01  0.1094E+02
   9.500  0.1947E+01  0.1096E+02
   9.510  0.1916E+01  0.1098E+02
   9.520  0.1886E+01  0.1100E+02
   9.530  0.1867E+01  0.1102E+02
   9.540  0.1881E+01  0.1104E+02
   9.550  0.1896E+01  0.1106E+02
   9.560  0.1914E+01  0.1108E+02
   9.570  0.1933E+01  0.1110E+02
   9.580  0.1935E+01  0.1112E+02
   9.590  0.1943E+01  0.1114E+02
   9.600  0.1948E+01  0.1115E+02
   9.610  0.1951E+01  0.1117E+02
   9.620  0.1950E+01  0.1119E+02
   9.630  0.1947E+01  0.1121E+02
   9.640  0.1941E+01  0.1123E+02
   9.650  0.1931E+01  0.1125E+02
   9.660  0.1919E+01  0.1127E+02
   9.670  0.1904E+01  0.1129E+02
   9.680  0.1891E+01  0.1131E+02
   9.690  0.1885E+01  0.1133E+02
   9.700  0.1879E+01  0.1135E+02
   9.710  0.1946E+01  0.1137E+02
   9.720  0.1908E+01  0.1139E+02
   9.730  0.1825E+01  0.1140E+02
   9.740  0.1813E+01  0.1142E+02
   9.750  0.1801E+01  0.1144E+02
   9.760  0.1798E+01  0.1146E+02
   9.770  0.1819E+01  0.1148E+02
   9.780  0.1819E+01  0.1149E+02
   9.790  0.1800E+01  0.1151E+02
   9.800  0.1760E+01  0.1153E+02
   9.810  0.1733E+01  0.1155E+02
   9.820  0.1721E+01  0.1157E+02
   9.830  0.1707E+01  0.1158E+02
   9.840  0.1694E+01  0.1160E+02
   9.850  0.1681E+01  0.1162E+02
   9.860  0.1669E+01  0.1163E+02
   9.870  0.1657E+01  0.1165E+02
   9.880  0.1645E+01  0.1167E+02
   9.890  0.1633E+01  0.1168E+02
   9.900  0.1617E+01  0.1170E+02
   9.910  0.1600E+01  0.1171E+02
   9.920  0.1583E+01  0.1173E+02
   9.930  0.1566E+01  0.1175E+02
   9.940  0.1549E+01  0.1176E+02
   9.950  0.1531E+01  0.1178E+02
   9.960  0.1514E+01  0.1179E+02
   9.970  0.1496E+01  0.1181E+02
   9.980  0.1479E+01  0.1182E+02
   9.990  0.1462E+01  0.1184E+02
  10.000  0.1445E+01  0.1185E+02
  10.010  0.1428E+01  0.1187E+02
  10.020  0.1410E+01  0.1188E+02
  10.030  0.1391E+01  0.1189E+02
  10.040  0.1374E+01  0.1191E+02
  10.050  0.1357E+01  0.1192E+02
  10.060  0.1348E+01  0.1194E+02
  10.070  0.1339E+01  0.1195E+02
  10.080  0.1330E+01  0.1196E+02
  10.090  0.1322E+01  0.1198E+02
  10.100  0.1313E+01  0.1199E+02
  10.110  0.1305E+01  0.1200E+02
  10.120  0.1297E+01  0.1201E+02
  10.130  0.1290E+01  0.1203E+02
  10.140  0.1285E+01  0.1204E+02
  10.150  0.1277E+01  0.1205E+02
  10.160  0.1269E+01  0.1207E+02
  10.170  0.1247E+01  0.1208E+02
  10.180  0.1246E+01  0.1209E+02
  10.190  0.1245E+01  0.1210E+02
  10.200  0.1246E+01  0.1212E+02
  10.210  0.1248E+01  0.1213E+02
  10.220  0.1251E+01  0.1214E+02
  10.230  0.1255E+01  0.1215E+02
  10.240  0.1260E+01  0.1217E+02
  10.250  0.1267E+01  0.1218E+02
  10.260  0.1257E+01  0.1219E+02
  10.270  0.1267E+01  0.1220E+02
  10.280  0.1256E+01  0.1222E+02
  10.290  0.1244E+01  0.1223E+02
  10.300  0.1232E+01  0.1224E+02
  10.310  0.1221E+01  0.1225E+02
  10.320  0.1212E+01  0.1227E+02
  10.330  0.1203E+01  0.1228E+02
  10.340  0.1195E+01  0.1229E+02
  10.350  0.1189E+01  0.1230E+02
  10.360  0.1183E+01  0.1231E+02
  10.370  0.1178E+01  0.1233E+02
  10.380  0.1176E+01  0.1234E+02
  10.390  0.1175E+01  0.1235E+02
  10.400  0.1177E+01  0.1236E+02
  10.410  0.1181E+01  0.1237E+02
  10.420  0.1187E+01  0.1238E+02
  10.430  0.1194E+01  0.1240E+02
  10.440  0.1207E+01  0.1241E+02
  10.450  0.1215E+01  0.1242E+02
  10.460  0.1208E+01  0.1243E+02
  10.470  0.1204E+01  0.1244E+02
  10.480  0.1205E+01  0.1246E+02
  10.490  0.1333E+01  0.1247E+02
  10.500  0.1392E+01  0.1248E+02
  10.510  0.1399E+01  0.1250E+02
  10.520  0.1384E+01  0.1251E+02
  10.530  0.1367E+01  0.1252E+02
  10.540  0.1347E+01  0.1254E+02
  10.550  0.1324E+01  0.1255E+02
  10.560  0.1297E+01  0.1256E+02
  10.570  0.1270E+01  0.1258E+02
  10.580  0.1246E+01  0.1259E+02
  10.590  0.1225E+01  0.1260E+02
  10.600  0.1206E+01  0.1261E+02
  10.610  0.1186E+01  0.1263E+02
  10.620  0.1168E+01  0.1264E+02
  10.630  0.1149E+01  0.1265E+02
  10.640  0.1139E+01  0.1266E+02
  10.650  0.1130E+01  0.1267E+02
  10.660  0.1118E+01  0.1268E+02
  10.670  0.1106E+01  0.1269E+02
  10.680  0.1092E+01  0.1271E+02
  10.690  0.1077E+01  0.1272E+02
  10.700  0.1063E+01  0.1273E+02
  10.710  0.1050E+01  0.1274E+02
  10.720  0.1036E+01  0.1275E+02
  10.730  0.1023E+01  0.1276E+02
  10.740  0.1012E+01  0.1277E+02
  10.750  0.1009E+01  0.1278E+02
  10.760  0.1009E+01  0.1279E+02
  10.770  0.1010E+01  0.1280E+02
  10.780  0.1013E+01  0.1281E+02
  10.790  0.1017E+01  0.1282E+02
  10.800  0.1023E+01  0.1283E+02
  10.810  0.1030E+01  0.1284E+02
  10.820  0.1039E+01  0.1285E+02
  10.830  0.1049E+01  0.1286E+02
  10.840  0.1134E+01  0.1287E+02
  10.850  0.1157E+01  0.1288E+02
  10.860  0.1128E+01  0.1289E+02
  10.870  0.1139E+01  0.1291E+02
  10.880  0.1138E+01  0.1292E+02
  10.890  0.1138E+01  0.1293E+02
  10.900  0.1139E+01  0.1294E+02
  10.910  0.1141E+01  0.1295E+02
  10.920  0.1147E+01  0.1296E+02
  10.930  0.1161E+01  0.1297E+02
  10.940  0.1192E+01  0.1299E+02
  10.950  0.1217E+01  0.1300E+02
  10.960  0.1237E+01  0.1301E+02
  10.970  0.1252E+01  0.1302E+02
  10.980  0.1262E+01  0.1304E+02
  10.990  0.1267E+01  0.1305E+02
  11.000  0.1267E+01  0.1306E+02
  11.010  0.1261E+01  0.1307E+02
  11.020  0.1246E+01  0.1309E+02
  11.030  0.1236E+01  0.1310E+02
  11.040  0.1234E+01  0.1311E+02
  11.050  0.1232E+01  0.1312E+02
  11.060  0.1230E+01  0.1314E+02
  11.070  0.1228E+01  0.1315E+02
  11.080  0.1226E+01  0.1316E+02
  11.090  0.1224E+01  0.1317E+02
  11.100  0.1222E+01  0.1318E+02
  11.110  0.1221E+01  0.1320E+02
  11.120  0.1219E+01  0.1321E+02
  11.130  0.1218E+01  0.1322E+02
  11.140  0.1217E+01  0.1323E+02
  11.150  0.1216E+01  0.1325E+02
  11.160  0.1215E+01  0.1326E+02
  11.170  0.1214E+01  0.1327E+02
  11.180  0.1213E+01  0.1328E+02
  11.190  0.1213E+01  0.1329E+02
  11.200  0.1212E+01  0.1331E+02
  11.210  0.1212E+01  0.1332E+02
  11.220  0.1212E+01  0.1333E+02
  11.230  0.1210E+01  0.1334E+02
  11.240  0.1208E+01  0.1335E+02
  11.250  0.1206E+01  0.1337E+02
  11.260  0.1205E+01  0.1338E+02
  11.270  0.1202E+01  0.1339E+02
  11.280  0.1200E+01  0.1340E+02
  11.290  0.1198E+01  0.1341E+02
  11.300  0.1197E+01  0.1343E+02
  11.310  0.1195E+01  0.1344E+02
  11.320  0.1194E+01  0.1345E+02
  11.330  0.1193E+01  0.1346E+02
  11.340  0.1192E+01  0.1347E+02
  11.350  0.1192E+01  0.1349E+02
  11.360  0.1192E+01  0.1350E+02
  11.370  0.1194E+01  0.1351E+02
  11.380  0.1195E+01  0.1352E+02
  11.390  0.1197E+01  0.1353E+02
  11.400  0.1199E+01  0.1355E+02
  11.410  0.1199E+01  0.1356E+02
  11.420  0.1198E+01  0.1357E+02
  11.430  0.1196E+01  0.1358E+02
  11.440  0.1196E+01  0.1359E+02
  11.450  0.1196E+01  0.1361E+02
  11.460  0.1196E+01  0.1362E+02
  11.470  0.1196E+01  0.1363E+02
  11.480  0.1196E+01  0.1364E+02
  11.490  0.1196E+01  0.1365E+02
  11.500  0.1196E+01  0.1367E+02
  11.510  0.1196E+01  0.1368E+02
  11.520  0.1196E+01  0.1369E+02
  11.530  0.1197E+01  0.1370E+02
  11.540  0.1197E+01  0.1371E+02
  11.550  0.1197E+01  0.1373E+02
  11.560  0.1196E+01  0.1374E+02
  11.570  0.1191E+01  0.1375E+02
  11.580  0.1186E+01  0.1376E+02
  11.590  0.1179E+01  0.1377E+02
  11.600  0.1180E+01  0.1378E+02
  11.610  0.1180E+01  0.1380E+02
  11.620  0.1181E+01  0.1381E+02
  11.630  0.1181E+01  0.1382E+02
  11.640  0.1181E+01  0.1383E+02
  11.650  0.1180E+01  0.1384E+02
  11.660  0.1179E+01  0.1386E+02
  11.670  0.1177E+01  0.1387E+02
  11.680  0.1174E+01  0.1388E+02
  11.690  0.1171E+01  0.1389E+02
  11.700  0.1167E+01  0.1390E+02
  11.710  0.1161E+01  0.1391E+02
  11.720  0.1153E+01  0.1393E+02
  11.730  0.1146E+01  0.1394E+02
  11.740  0.1137E+01  0.1395E+02
  11.750  0.1127E+01  0.1396E+02
  11.760  0.1117E+01  0.1397E+02
  11.770  0.1105E+01  0.1398E+02
  11.780  0.1093E+01  0.1399E+02
  11.790  0.1080E+01  0.1400E+02
  11.800  0.1065E+01  0.1401E+02
  11.810  0.1051E+01  0.1403E+02
  11.820  0.1039E+01  0.1404E+02
  11.830  0.1030E+01  0.1405E+02
  11.840  0.1022E+01  0.1406E+02
  11.850  0.1013E+01  0.1407E+02
  11.860  0.1005E+01  0.1408E+02
  11.870  0.9986E+00  0.1409E+02
  11.880  0.9951E+00  0.1410E+02
  11.890  0.9947E+00  0.1411E+02
  11.900  0.9973E+00  0.1412E+02
  11.910  0.1003E+01  0.1413E+02
  11.920  0.1010E+01  0.1414E+02
  11.930  0.9842E+00  0.1415E+02
  11.940  0.9722E+00  0.1416E+02
  11.950  0.9918E+00  0.1417E+02
  11.960  0.9681E+00  0.1418E+02
  11.970  0.9193E+00  0.1419E+02
  11.980  0.9097E+00  0.1419E+02
  11.990  0.9003E+00  0.1420E+02
  12.000  0.8920E+00  0.1421E+02
  12.010  0.8848E+00  0.1422E+02
  12.020  0.8772E+00  0.1423E+02
  12.030  0.8718E+00  0.1424E+02
  12.040  0.8703E+00  0.1425E+02
  12.050  0.8695E+00  0.1426E+02
  12.060  0.8688E+00  0.1427E+02
  12.070  0.8684E+00  0.1427E+02
  12.080  0.8684E+00  0.1428E+02
  12.090  0.8687E+00  0.1429E+02
  12.100  0.8694E+00  0.1430E+02
  12.110  0.8704E+00  0.1431E+02
  12.120  0.8719E+00  0.1432E+02
  12.130  0.8737E+00  0.1433E+02
  12.140  0.8757E+00  0.1433E+02
  12.150  0.8779E+00  0.1434E+02
  12.160  0.8836E+00  0.1435E+02
  12.170  0.8923E+00  0.1436E+02
  12.180  0.9020E+00  0.1437E+02
  12.190  0.9128E+00  0.1438E+02
  12.200  0.9246E+00  0.1439E+02
  12.210  0.9365E+00  0.1440E+02
  12.220  0.9482E+00  0.1441E+02
  12.230  0.9599E+00  0.1442E+02
  12.240  0.9717E+00  0.1443E+02
  12.250  0.9835E+00  0.1444E+02
  12.260  0.9953E+00  0.1445E+02
  12.270  0.1007E+01  0.1446E+02
  12.280  0.1019E+01  0.1447E+02
  12.290  0.1031E+01  0.1448E+02
  12.300  0.1043E+01  0.1449E+02
  12.310  0.1055E+01  0.1450E+02
  12.320  0.1067E+01  0.1451E+02
  12.330  0.1079E+01  0.1452E+02
  12.340  0.1091E+01  0.1453E+02
  12.350  0.1103E+01  0.1454E+02
  12.360  0.1115E+01  0.1455E+02
  12.370  0.1128E+01  0.1456E+02
  12.380  0.1140E+01  0.1457E+02
  12.390  0.1152E+01  0.1459E+02
  12.400  0.1165E+01  0.1460E+02
  12.410  0.1164E+01  0.1461E+02
  12.420  0.1170E+01  0.1462E+02
  12.430  0.1178E+01  0.1463E+02
  12.440  0.1186E+01  0.1464E+02
  12.450  0.1196E+01  0.1466E+02
  12.460  0.1207E+01  0.1467E+02
  12.470  0.1219E+01  0.1468E+02
  12.480  0.1231E+01  0.1469E+02
  12.490  0.1245E+01  0.1470E+02
  12.500  0.1258E+01  0.1472E+02
  12.510  0.1272E+01  0.1473E+02
  12.520  0.1286E+01  0.1474E+02
  12.530  0.1301E+01  0.1476E+02
  12.540  0.1316E+01  0.1477E+02
  12.550  0.1331E+01  0.1478E+02
  12.560  0.1346E+01  0.1480E+02
  12.570  0.1362E+01  0.1481E+02
  12.580  0.1379E+01  0.1482E+02
  12.590  0.1395E+01  0.1484E+02
  12.600  0.1407E+01  0.1485E+02
  12.610  0.1419E+01  0.1486E+02
  12.620  0.1431E+01  0.1488E+02
  12.630  0.1446E+01  0.1489E+02
  12.640  0.1456E+01  0.1491E+02
  12.650  0.1464E+01  0.1492E+02
  12.660  0.1472E+01  0.1494E+02
  12.670  0.1479E+01  0.1495E+02
  12.680  0.1485E+01  0.1497E+02
  12.690  0.1491E+01  0.1498E+02
  12.700  0.1495E+01  0.1500E+02
  12.710  0.1498E+01  0.1501E+02
  12.720  0.1500E+01  0.1503E+02
  12.730  0.1500E+01  0.1504E+02
  12.740  0.1500E+01  0.1506E+02
  12.750  0.1498E+01  0.1507E+02
  12.760  0.1494E+01  0.1509E+02
  12.770  0.1490E+01  0.1510E+02
  12.780  0.1485E+01  0.1512E+02
  12.790  0.1480E+01  0.1513E+02
  12.800  0.1474E+01  0.1515E+02
  12.810  0.1467E+01  0.1516E+02
  12.820  0.1460E+01  0.1518E+02
  12.830  0.1454E+01  0.1519E+02
  12.840  0.1447E+01  0.1520E+02
  12.850  0.1440E+01  0.1522E+02
  12.860  0.1433E+01  0.1523E+02
  12.870  0.1426E+01  0.1525E+02
  12.880  0.1418E+01  0.1526E+02
  12.890  0.1410E+01  0.1528E+02
  12.900  0.1402E+01  0.1529E+02
  12.910  0.1394E+01  0.1530E+02
  12.920  0.1385E+01  0.1532E+02
  12.930  0.1376E+01  0.1533E+02
  12.940  0.1367E+01  0.1535E+02
  12.950  0.1357E+01  0.1536E+02
  12.960  0.1347E+01  0.1537E+02
  12.970  0.1336E+01  0.1539E+02
  12.980  0.1325E+01  0.1540E+02
  12.990  0.1313E+01  0.1541E+02
  13.000  0.1302E+01  0.1543E+02
  13.010  0.1290E+01  0.1544E+02
  13.020  0.1278E+01  0.1545E+02
  13.030  0.1266E+01  0.1546E+02
  13.040  0.1253E+01  0.1548E+02
  13.050  0.1240E+01  0.1549E+02
  13.060  0.1227E+01  0.1550E+02
  13.070  0.1214E+01  0.1551E+02
  13.080  0.1202E+01  0.1553E+02
  13.090  0.1190E+01  0.1554E+02
  13.100  0.1179E+01  0.1555E+02
  13.110  0.1168E+01  0.1556E+02
  13.120  0.1159E+01  0.1557E+02
  13.130  0.1150E+01  0.1558E+02
  13.140  0.1141E+01  0.1560E+02
  13.150  0.1134E+01  0.1561E+02
  13.160  0.1127E+01  0.1562E+02
  13.170  0.1120E+01  0.1563E+02
  13.180  0.1114E+01  0.1564E+02
  13.190  0.1107E+01  0.1565E+02
  13.200  0.1100E+01  0.1566E+02
  13.210  0.1094E+01  0.1567E+02
  13.220  0.1089E+01  0.1568E+02
  13.230  0.1080E+01  0.1570E+02
  13.240  0.1068E+01  0.1571E+02
  13.250  0.1019E+01  0.1572E+02
  13.260  0.1014E+01  0.1573E+02
  13.270  0.1019E+01  0.1574E+02
  13.280  0.1028E+01  0.1575E+02
  13.290  0.1038E+01  0.1576E+02
  13.300  0.1048E+01  0.1577E+02
  13.310  0.1055E+01  0.1578E+02
  13.320  0.1057E+01  0.1579E+02
  13.330  0.1059E+01  0.1580E+02
  13.340  0.1063E+01  0.1581E+02
  13.350  0.1065E+01  0.1582E+02
  13.360  0.1068E+01  0.1583E+02
  13.370  0.1071E+01  0.1584E+02
  13.380  0.1074E+01  0.1585E+02
  13.390  0.1073E+01  0.1586E+02
  13.400  0.1070E+01  0.1587E+02
  13.410  0.1067E+01  0.1589E+02
  13.420  0.1062E+01  0.1590E+02
  13.430  0.1056E+01  0.1591E+02
  13.440  0.1057E+01  0.1592E+02
  13.450  0.1056E+01  0.1593E+02
  13.460  0.1055E+01  0.1594E+02
  13.470  0.1058E+01  0.1595E+02
  13.480  0.1067E+01  0.1596E+02
  13.490  0.1076E+01  0.1597E+02
  13.500  0.1085E+01  0.1598E+02
  13.510  0.1092E+01  0.1599E+02
  13.520  0.1100E+01  0.1600E+02
  13.530  0.1107E+01  0.1601E+02
  13.540  0.1115E+01  0.1602E+02
  13.550  0.1121E+01  0.1604E+02
  13.560  0.1128E+01  0.1605E+02
  13.570  0.1134E+01  0.1606E+02
  13.580  0.1141E+01  0.1607E+02
  13.590  0.1147E+01  0.1608E+02
  13.600  0.1154E+01  0.1609E+02
  13.610  0.1160E+01  0.1610E+02
  13.620  0.1166E+01  0.1612E+02
  13.630  0.1172E+01  0.1613E+02
  13.640  0.1178E+01  0.1614E+02
  13.650  0.1184E+01  0.1615E+02
  13.660  0.1190E+01  0.1616E+02
  13.670  0.1196E+01  0.1618E+02
  13.680  0.1202E+01  0.1619E+02
  13.690  0.1207E+01  0.1620E+02
  13.700  0.1214E+01  0.1621E+02
  13.710  0.1221E+01  0.1622E+02
  13.720  0.1229E+01  0.1624E+02
  13.730  0.1238E+01  0.1625E+02
  13.740  0.1248E+01  0.1626E+02
  13.750  0.1258E+01  0.1627E+02
  13.760  0.1269E+01  0.1629E+02
  13.770  0.1283E+01  0.1630E+02
  13.780  0.1288E+01  0.1631E+02
  13.790  0.1293E+01  0.1632E+02
  13.800  0.1300E+01  0.1634E+02
  13.810  0.1309E+01  0.1635E+02
  13.820  0.1319E+01  0.1636E+02
  13.830  0.1342E+01  0.1638E+02
  13.840  0.1360E+01  0.1639E+02
  13.850  0.1315E+01  0.1640E+02
  13.860  0.1327E+01  0.1642E+02
  13.870  0.1345E+01  0.1643E+02
  13.880  0.1361E+01  0.1644E+02
  13.890  0.1371E+01  0.1646E+02
  13.900  0.1369E+01  0.1647E+02
  13.910  0.1356E+01  0.1648E+02
  13.920  0.1331E+01  0.1650E+02
  13.930  0.1300E+01  0.1651E+02
  13.940  0.1260E+01  0.1652E+02
  13.950  0.1211E+01  0.1654E+02
  13.960  0.1158E+01  0.1655E+02
  13.970  0.1145E+01  0.1656E+02
  13.980  0.1147E+01  0.1657E+02
  13.990  0.1149E+01  0.1658E+02
  14.000  0.1151E+01  0.1659E+02
  14.010  0.1152E+01  0.1661E+02
  14.020  0.1153E+01  0.1662E+02
  14.030  0.1154E+01  0.1663E+02
  14.040  0.1155E+01  0.1664E+02
  14.050  0.1156E+01  0.1665E+02
  14.060  0.1156E+01  0.1666E+02
  14.070  0.1157E+01  0.1668E+02
  14.080  0.1157E+01  0.1669E+02
  14.090  0.1157E+01  0.1670E+02
  14.100  0.1156E+01  0.1671E+02
  14.110  0.1156E+01  0.1672E+02
  14.120  0.1156E+01  0.1673E+02
  14.130  0.1156E+01  0.1674E+02
  14.140  0.1156E+01  0.1676E+02
  14.150  0.1156E+01  0.1677E+02
  14.160  0.1155E+01  0.1678E+02
  14.170  0.1155E+01  0.1679E+02
  14.180  0.1170E+01  0.1680E+02
  14.190  0.1179E+01  0.1681E+02
  14.200  0.1179E+01  0.1683E+02
  14.210  0.1179E+01  0.1684E+02
  14.220  0.1179E+01  0.1685E+02
  14.230  0.1179E+01  0.1686E+02
  14.240  0.1179E+01  0.1687E+02
  14.250  0.1185E+01  0.1688E+02
  14.260  0.1190E+01  0.1690E+02
  14.270  0.1194E+01  0.1691E+02
  14.280  0.1198E+01  0.1692E+02
  14.290  0.1200E+01  0.1693E+02
  14.300  0.1202E+01  0.1694E+02
  14.310  0.1204E+01  0.1696E+02
  14.320  0.1204E+01  0.1697E+02
  14.330  0.1204E+01  0.1698E+02
  14.340  0.1203E+01  0.1699E+02
  14.350  0.1201E+01  0.1700E+02
  14.360  0.1198E+01  0.1702E+02
  14.370  0.1196E+01  0.1703E+02
  14.380  0.1197E+01  0.1704E+02
  14.390  0.1198E+01  0.1705E+02
  14.400  0.1199E+01  0.1706E+02
  14.410  0.1200E+01  0.1708E+02
  14.420  0.1201E+01  0.1709E+02
  14.430  0.1202E+01  0.1710E+02
  14.440  0.1203E+01  0.1711E+02
  14.450  0.1204E+01  0.1712E+02
  14.460  0.1206E+01  0.1714E+02
  14.470  0.1208E+01  0.1715E+02
  14.480  0.1211E+01  0.1716E+02
  14.490  0.1213E+01  0.1717E+02
  14.500  0.1215E+01  0.1719E+02
  14.510  0.1218E+01  0.1720E+02
  14.520  0.1220E+01  0.1721E+02
  14.530  0.1223E+01  0.1722E+02
  14.540  0.1225E+01  0.1723E+02
  14.550  0.1228E+01  0.1725E+02
  14.560  0.1230E+01  0.1726E+02
  14.570  0.1233E+01  0.1727E+02
  14.580  0.1235E+01  0.1728E+02
  14.590  0.1238E+01  0.1730E+02
  14.600  0.1240E+01  0.1731E+02
  14.610  0.1243E+01  0.1732E+02
  14.620  0.1245E+01  0.1733E+02
  14.630  0.1248E+01  0.1735E+02
  14.640  0.1251E+01  0.1736E+02
  14.650  0.1255E+01  0.1737E+02
  14.660  0.1258E+01  0.1738E+02
  14.670  0.1262E+01  0.1740E+02
  14.680  0.1267E+01  0.1741E+02
  14.690  0.1273E+01  0.1742E+02
  14.700  0.1280E+01  0.1743E+02
  14.710  0.1288E+01  0.1745E+02
  14.720  0.1296E+01  0.1746E+02
  14.730  0.1304E+01  0.1747E+02
  14.740  0.1313E+01  0.1749E+02
  14.750  0.1320E+01  0.1750E+02
  14.760  0.1324E+01  0.1751E+02
  14.770  0.1329E+01  0.1753E+02
  14.780  0.1338E+01  0.1754E+02
  14.790  0.1346E+01  0.1755E+02
  14.800  0.1353E+01  0.1757E+02
  14.810  0.1360E+01  0.1758E+02
  14.820  0.1365E+01  0.1759E+02
  14.830  0.1369E+01  0.1761E+02
  14.840  0.1373E+01  0.1762E+02
  14.850  0.1375E+01  0.1763E+02
  14.860  0.1377E+01  0.1765E+02
  14.870  0.1377E+01  0.1766E+02
  14.880  0.1376E+01  0.1767E+02
  14.890  0.1386E+01  0.1769E+02
  14.900  0.1429E+01  0.1770E+02
  14.910  0.1456E+01  0.1772E+02
  14.920  0.1467E+01  0.1773E+02
  14.930  0.1462E+01  0.1775E+02
  14.940  0.1448E+01  0.1776E+02
  14.950  0.1422E+01  0.1778E+02
  14.960  0.1381E+01  0.1779E+02
  14.970  0.1351E+01  0.1780E+02
  14.980  0.1335E+01  0.1782E+02
  14.990  0.1325E+01  0.1783E+02
  15.000  0.1318E+01  0.1784E+02
  15.010  0.1311E+01  0.1786E+02
  15.020  0.1309E+01  0.1787E+02
  15.030  0.1309E+01  0.1788E+02
  15.040  0.1309E+01  0.1790E+02
  15.050  0.1308E+01  0.1791E+02
  15.060  0.1307E+01  0.1792E+02
  15.070  0.1307E+01  0.1793E+02
  15.080  0.1306E+01  0.1795E+02
  15.090  0.1306E+01  0.1796E+02
  15.100  0.1307E+01  0.1797E+02
  15.110  0.1309E+01  0.1799E+02
  15.120  0.1311E+01  0.1800E+02
  15.130  0.1315E+01  0.1801E+02
  15.140  0.1318E+01  0.1803E+02
  15.150  0.1322E+01  0.1804E+02
  15.160  0.1327E+01  0.1805E+02
  15.170  0.1332E+01  0.1807E+02
  15.180  0.1337E+01  0.1808E+02
  15.190  0.1343E+01  0.1809E+02
  15.200  0.1350E+01  0.1811E+02
  15.210  0.1358E+01  0.1812E+02
  15.220  0.1367E+01  0.1813E+02
  15.230  0.1376E+01  0.1815E+02
  15.240  0.1384E+01  0.1816E+02
  15.250  0.1393E+01  0.1817E+02
  15.260  0.1403E+01  0.1819E+02
  15.270  0.1413E+01  0.1820E+02
  15.280  0.1422E+01  0.1822E+02
  15.290  0.1431E+01  0.1823E+02
  15.300  0.1439E+01  0.1825E+02
  15.310  0.1447E+01  0.1826E+02
  15.320  0.1456E+01  0.1827E+02
  15.330  0.1465E+01  0.1829E+02
  15.340  0.1474E+01  0.1830E+02
  15.350  0.1483E+01  0.1832E+02
  15.360  0.1491E+01  0.1833E+02
  15.370  0.1499E+01  0.1835E+02
  15.380  0.1506E+01  0.1836E+02
  15.390  0.1512E+01  0.1838E+02
  15.400  0.1518E+01  0.1839E+02
  15.410  0.1523E+01  0.1841E+02
  15.420  0.1528E+01  0.1842E+02
  15.430  0.1533E+01  0.1844E+02
  15.440  0.1538E+01  0.1845E+02
  15.450  0.1544E+01  0.1847E+02
  15.460  0.1560E+01  0.1849E+02
  15.470  0.1575E+01  0.1850E+02
  15.480  0.1570E+01  0.1852E+02
  15.490  0.1548E+01  0.1853E+02
  15.500  0.1543E+01  0.1855E+02
  15.510  0.1548E+01  0.1856E+02
  15.520  0.1554E+01  0.1858E+02
  15.530  0.1561E+01  0.1859E+02
  15.540  0.1563E+01  0.1861E+02
  15.550  0.1559E+01  0.1863E+02
  15.560  0.1555E+01  0.1864E+02
  15.570  0.1551E+01  0.1866E+02
  15.580  0.1547E+01  0.1867E+02
  15.590  0.1543E+01  0.1869E+02
  15.600  0.1538E+01  0.1870E+02
  15.610  0.1534E+01  0.1872E+02
  15.620  0.1529E+01  0.1873E+02
  15.630  0.1524E+01  0.1875E+02
  15.640  0.1522E+01  0.1876E+02
  15.650  0.1519E+01  0.1878E+02
  15.660  0.1517E+01  0.1880E+02
  15.670  0.1515E+01  0.1881E+02
  15.680  0.1513E+01  0.1883E+02
  15.690  0.1511E+01  0.1884E+02
  15.700  0.1509E+01  0.1886E+02
  15.710  0.1507E+01  0.1887E+02
  15.720  0.1505E+01  0.1889E+02
  15.730  0.1503E+01  0.1890E+02
  15.740  0.1501E+01  0.1892E+02
  15.750  0.1499E+01  0.1893E+02
  15.760  0.1497E+01  0.1895E+02
  15.770  0.1495E+01  0.1896E+02
  15.780  0.1491E+01  0.1898E+02
  15.790  0.1486E+01  0.1899E+02
  15.800  0.1481E+01  0.1901E+02
  15.810  0.1476E+01  0.1902E+02
  15.820  0.1471E+01  0.1903E+02
  15.830  0.1467E+01  0.1905E+02
  15.840  0.1462E+01  0.1906E+02
  15.850  0.1457E+01  0.1908E+02
  15.860  0.1452E+01  0.1909E+02
  15.870  0.1448E+01  0.1911E+02
  15.880  0.1443E+01  0.1912E+02
  15.890  0.1438E+01  0.1914E+02
  15.900  0.1434E+01  0.1915E+02
  15.910  0.1430E+01  0.1917E+02
  15.920  0.1426E+01  0.1918E+02
  15.930  0.1422E+01  0.1919E+02
  15.940  0.1418E+01  0.1921E+02
  15.950  0.1415E+01  0.1922E+02
  15.960  0.1412E+01  0.1924E+02
  15.970  0.1410E+01  0.1925E+02
  15.980  0.1407E+01  0.1926E+02
  15.990  0.1405E+01  0.1928E+02
  16.000  0.1403E+01  0.1929E+02
  16.010  0.1401E+01  0.1931E+02
  16.020  0.1399E+01  0.1932E+02
  16.030  0.1397E+01  0.1933E+02
  16.040  0.1395E+01  0.1935E+02
  16.050  0.1394E+01  0.1936E+02
  16.060  0.1392E+01  0.1938E+02
  16.070  0.1390E+01  0.1939E+02
  16.080  0.1389E+01  0.1940E+02
  16.090  0.1387E+01  0.1942E+02
  16.100  0.1385E+01  0.1943E+02
  16.110  0.1383E+01  0.1945E+02
  16.120  0.1381E+01  0.1946E+02
  16.130  0.1379E+01  0.1947E+02
  16.140  0.1376E+01  0.1949E+02
  16.150  0.1374E+01  0.1950E+02
  16.160  0.1372E+01  0.1951E+02
  16.170  0.1370E+01  0.1953E+02
  16.180  0.1368E+01  0.1954E+02
  16.190  0.1366E+01  0.1956E+02
  16.200  0.1364E+01  0.1957E+02
  16.210  0.1363E+01  0.1958E+02
  16.220  0.1362E+01  0.1960E+02
  16.230  0.1361E+01  0.1961E+02
  16.240  0.1361E+01  0.1962E+02
  16.250  0.1361E+01  0.1964E+02
  16.260  0.1361E+01  0.1965E+02
  16.270  0.1362E+01  0.1966E+02
  16.280  0.1364E+01  0.1968E+02
  16.290  0.1371E+01  0.1969E+02
  16.300  0.1374E+01  0.1971E+02
  16.310  0.1373E+01  0.1972E+02
  16.320  0.1369E+01  0.1973E+02
  16.330  0.1361E+01  0.1975E+02
  16.340  0.1352E+01  0.1976E+02
  16.350  0.1349E+01  0.1977E+02
  16.360  0.1346E+01  0.1979E+02
  16.370  0.1343E+01  0.1980E+02
  16.380  0.1340E+01  0.1981E+02
  16.390  0.1337E+01  0.1983E+02
  16.400  0.1334E+01  0.1984E+02
  16.410  0.1331E+01  0.1985E+02
  16.420  0.1327E+01  0.1987E+02
  16.430  0.1324E+01  0.1988E+02
  16.440  0.1324E+01  0.1989E+02
  16.450  0.1325E+01  0.1991E+02
  16.460  0.1330E+01  0.1992E+02
  16.470  0.1341E+01  0.1993E+02
  16.480  0.1356E+01  0.1995E+02
  16.490  0.1371E+01  0.1996E+02
  16.500  0.1385E+01  0.1997E+02
  16.510  0.1399E+01  0.1999E+02
  16.520  0.1412E+01  0.2000E+02
  16.530  0.1424E+01  0.2002E+02
  16.540  0.1436E+01  0.2003E+02
  16.550  0.1448E+01  0.2005E+02
  16.560  0.1458E+01  0.2006E+02
  16.570  0.1469E+01  0.2008E+02
  16.580  0.1478E+01  0.2009E+02
  16.590  0.1488E+01  0.2010E+02
  16.600  0.1496E+01  0.2012E+02
  16.610  0.1504E+01  0.2013E+02
  16.620  0.1509E+01  0.2015E+02
  16.630  0.1513E+01  0.2016E+02
  16.640  0.1516E+01  0.2018E+02
  16.650  0.1517E+01  0.2019E+02
  16.660  0.1517E+01  0.2021E+02
  16.670  0.1516E+01  0.2023E+02
  16.680  0.1511E+01  0.2024E+02
  16.690  0.1505E+01  0.2026E+02
  16.700  0.1498E+01  0.2027E+02
  16.710  0.1490E+01  0.2029E+02
  16.720  0.1478E+01  0.2030E+02
  16.730  0.1463E+01  0.2032E+02
  16.740  0.1448E+01  0.2033E+02
  16.750  0.1431E+01  0.2034E+02
  16.760  0.1413E+01  0.2036E+02
  16.770  0.1388E+01  0.2037E+02
  16.780  0.1360E+01  0.2039E+02
  16.790  0.1333E+01  0.2040E+02
  16.800  0.1305E+01  0.2041E+02
  16.810  0.1287E+01  0.2043E+02
  16.820  0.1266E+01  0.2044E+02
  16.830  0.1246E+01  0.2045E+02
  16.840  0.1226E+01  0.2046E+02
  16.850  0.1201E+01  0.2048E+02
  16.860  0.1179E+01  0.2049E+02
  16.870  0.1167E+01  0.2050E+02
  16.880  0.1202E+01  0.2051E+02
  16.890  0.1048E+01  0.2052E+02
  16.900  0.1002E+01  0.2053E+02
  16.910  0.9595E+00  0.2054E+02
  16.920  0.9225E+00  0.2055E+02
  16.930  0.8883E+00  0.2056E+02
  16.940  0.8566E+00  0.2057E+02
  16.950  0.8274E+00  0.2058E+02
  16.960  0.8007E+00  0.2059E+02
  16.970  0.7436E+00  0.2059E+02
  16.980  0.7506E+00  0.2060E+02
  16.990  0.9430E+00  0.2061E+02
  17.000  0.8384E+00  0.2062E+02
  17.010  0.7828E+00  0.2063E+02
  17.020  0.7702E+00  0.2063E+02
  17.030  0.7732E+00  0.2064E+02
  17.040  0.7874E+00  0.2065E+02
  17.050  0.7994E+00  0.2066E+02
  17.060  0.8093E+00  0.2067E+02
  17.070  0.8185E+00  0.2067E+02
  17.080  0.8270E+00  0.2068E+02
  17.090  0.8349E+00  0.2069E+02
  17.100  0.8423E+00  0.2070E+02
  17.110  0.8490E+00  0.2071E+02
  17.120  0.8550E+00  0.2072E+02
  17.130  0.8605E+00  0.2072E+02
  17.140  0.8650E+00  0.2073E+02
  17.150  0.8691E+00  0.2074E+02
  17.160  0.8733E+00  0.2075E+02
  17.170  0.8770E+00  0.2076E+02
  17.180  0.8800E+00  0.2077E+02
  17.190  0.8820E+00  0.2078E+02
  17.200  0.8833E+00  0.2079E+02
  17.210  0.8837E+00  0.2079E+02
  17.220  0.8835E+00  0.2080E+02
  17.230  0.8826E+00  0.2081E+02
  17.240  0.8809E+00  0.2082E+02
  17.250  0.8785E+00  0.2083E+02
  17.260  0.8763E+00  0.2084E+02
  17.270  0.8713E+00  0.2085E+02
  17.280  0.8647E+00  0.2086E+02
  17.290  0.8563E+00  0.2086E+02
  17.300  0.8461E+00  0.2087E+02
  17.310  0.8341E+00  0.2088E+02
  17.320  0.8202E+00  0.2089E+02
  17.330  0.8046E+00  0.2090E+02
  17.340  0.7877E+00  0.2091E+02
  17.350  0.7795E+00  0.2091E+02
  17.360  0.7806E+00  0.2092E+02
  17.370  0.7810E+00  0.2093E+02
  17.380  0.7821E+00  0.2094E+02
  17.390  0.7837E+00  0.2094E+02
  17.400  0.7854E+00  0.2095E+02
  17.410  0.7870E+00  0.2096E+02
  17.420  0.7888E+00  0.2097E+02
  17.430  0.7906E+00  0.2098E+02
  17.440  0.7925E+00  0.2098E+02
  17.450  0.7945E+00  0.2099E+02
  17.460  0.7967E+00  0.2100E+02
  17.470  0.7989E+00  0.2101E+02
  17.480  0.8012E+00  0.2102E+02
  17.490  0.8037E+00  0.2102E+02
  17.500  0.8062E+00  0.2103E+02
  17.510  0.8089E+00  0.2104E+02
  17.520  0.8116E+00  0.2105E+02
  17.530  0.8145E+00  0.2106E+02
  17.540  0.8174E+00  0.2106E+02
  17.550  0.8204E+00  0.2107E+02
  17.560  0.8236E+00  0.2108E+02
  17.570  0.8269E+00  0.2109E+02
  17.580  0.8302E+00  0.2110E+02
  17.590  0.8337E+00  0.2111E+02
  17.600  0.8372E+00  0.2111E+02
  17.610  0.8409E+00  0.2112E+02
  17.620  0.8447E+00  0.2113E+02
  17.630  0.8568E+00  0.2114E+02
  17.640  0.9243E+00  0.2115E+02
  17.650  0.9239E+00  0.2116E+02
  17.660  0.9245E+00  0.2117E+02
  17.670  0.9253E+00  0.2118E+02
  17.680  0.9263E+00  0.2119E+02
  17.690  0.9276E+00  0.2119E+02
  17.700  0.9291E+00  0.2120E+02
  17.710  0.9303E+00  0.2121E+02
  17.720  0.9296E+00  0.2122E+02
  17.730  0.9278E+00  0.2123E+02
  17.740  0.9307E+00  0.2124E+02
  17.750  0.9355E+00  0.2125E+02
  17.760  0.9408E+00  0.2126E+02
  17.770  0.9465E+00  0.2127E+02
  17.780  0.9527E+00  0.2128E+02
  17.790  0.9588E+00  0.2129E+02
  17.800  0.9641E+00  0.2130E+02
  17.810  0.9696E+00  0.2131E+02
  17.820  0.9753E+00  0.2132E+02
  17.830  0.9812E+00  0.2133E+02
  17.840  0.9872E+00  0.2134E+02
  17.850  0.9943E+00  0.2135E+02
  17.860  0.1002E+01  0.2136E+02
  17.870  0.1009E+01  0.2137E+02
  17.880  0.1017E+01  0.2138E+02
  17.890  0.1025E+01  0.2139E+02
  17.900  0.1033E+01  0.2140E+02
  17.910  0.1042E+01  0.2141E+02
  17.920  0.1051E+01  0.2142E+02
  17.930  0.1061E+01  0.2143E+02
  17.940  0.1071E+01  0.2144E+02
  17.950  0.1081E+01  0.2145E+02
  17.960  0.1091E+01  0.2146E+02
  17.970  0.1102E+01  0.2147E+02
  17.980  0.1113E+01  0.2148E+02
  17.990  0.1124E+01  0.2149E+02
  18.000  0.1136E+01  0.2151E+02
  18.010  0.1149E+01  0.2152E+02
  18.020  0.1162E+01  0.2153E+02
  18.030  0.1177E+01  0.2154E+02
  18.040  0.1202E+01  0.2155E+02
  18.050  0.1234E+01  0.2156E+02
  18.060  0.1263E+01  0.2158E+02
  18.070  0.1300E+01  0.2159E+02
  18.080  0.1353E+01  0.2160E+02
  18.090  0.1431E+01  0.2162E+02
  18.100  0.1499E+01  0.2163E+02
  18.110  0.1558E+01  0.2165E+02
  18.120  0.1609E+01  0.2166E+02
  18.130  0.1656E+01  0.2168E+02
  18.140  0.1698E+01  0.2170E+02
  18.150  0.1736E+01  0.2171E+02
  18.160  0.1772E+01  0.2173E+02
  18.170  0.1802E+01  0.2175E+02
  18.180  0.1813E+01  0.2177E+02
  18.190  0.1806E+01  0.2178E+02
  18.200  0.1811E+01  0.2180E+02
  18.210  0.1817E+01  0.2182E+02
  18.220  0.1823E+01  0.2184E+02
  18.230  0.1829E+01  0.2186E+02
  18.240  0.1837E+01  0.2188E+02
  18.250  0.1844E+01  0.2189E+02
  18.260  0.1853E+01  0.2191E+02
  18.270  0.1863E+01  0.2193E+02
  18.280  0.1876E+01  0.2195E+02
  18.290  0.1892E+01  0.2197E+02
  18.300  0.1910E+01  0.2199E+02
  18.310  0.1933E+01  0.2201E+02
  18.320  0.1959E+01  0.2203E+02
  18.330  0.1988E+01  0.2205E+02
  18.340  0.2010E+01  0.2207E+02
  18.350  0.2033E+01  0.2209E+02
  18.360  0.2046E+01  0.2211E+02
  18.370  0.2059E+01  0.2213E+02
  18.380  0.2071E+01  0.2215E+02
  18.390  0.2082E+01  0.2217E+02
  18.400  0.2092E+01  0.2219E+02
  18.410  0.2101E+01  0.2221E+02
  18.420  0.2110E+01  0.2223E+02
  18.430  0.2117E+01  0.2225E+02
  18.440  0.2124E+01  0.2227E+02
  18.450  0.2130E+01  0.2230E+02
  18.460  0.2148E+01  0.2232E+02
  18.470  0.2184E+01  0.2234E+02
  18.480  0.2104E+01  0.2236E+02
  18.490  0.2095E+01  0.2238E+02
  18.500  0.2084E+01  0.2240E+02
  18.510  0.2075E+01  0.2242E+02
  18.520  0.2065E+01  0.2244E+02
  18.530  0.2053E+01  0.2246E+02
  18.540  0.2039E+01  0.2248E+02
  18.550  0.2024E+01  0.2250E+02
  18.560  0.2006E+01  0.2252E+02
  18.570  0.1987E+01  0.2254E+02
  18.580  0.1980E+01  0.2256E+02
  18.590  0.1991E+01  0.2258E+02
  18.600  0.1980E+01  0.2260E+02
  18.610  0.1944E+01  0.2262E+02
  18.620  0.1884E+01  0.2264E+02
  18.630  0.1815E+01  0.2266E+02
  18.640  0.1785E+01  0.2268E+02
  18.650  0.1755E+01  0.2270E+02
  18.660  0.1724E+01  0.2271E+02
  18.670  0.1694E+01  0.2273E+02
  18.680  0.1663E+01  0.2275E+02
  18.690  0.1632E+01  0.2276E+02
  18.700  0.1601E+01  0.2278E+02
  18.710  0.1558E+01  0.2280E+02
  18.720  0.1505E+01  0.2281E+02
  18.730  0.1457E+01  0.2283E+02
  18.740  0.1421E+01  0.2284E+02
  18.750  0.1395E+01  0.2286E+02
  18.760  0.1370E+01  0.2287E+02
  18.770  0.1344E+01  0.2288E+02
  18.780  0.1318E+01  0.2290E+02
  18.790  0.1294E+01  0.2291E+02
  18.800  0.1273E+01  0.2292E+02
  18.810  0.1254E+01  0.2293E+02
  18.820  0.1236E+01  0.2295E+02
  18.830  0.1218E+01  0.2296E+02
  18.840  0.1201E+01  0.2297E+02
  18.850  0.1186E+01  0.2298E+02
  18.860  0.1170E+01  0.2300E+02
  18.870  0.1155E+01  0.2301E+02
  18.880  0.1141E+01  0.2302E+02
  18.890  0.1127E+01  0.2303E+02
  18.900  0.1114E+01  0.2304E+02
  18.910  0.1101E+01  0.2305E+02
  18.920  0.1088E+01  0.2306E+02
  18.930  0.1075E+01  0.2307E+02
  18.940  0.1062E+01  0.2308E+02
  18.950  0.1050E+01  0.2309E+02
  18.960  0.1037E+01  0.2311E+02
  18.970  0.1025E+01  0.2312E+02
  18.980  0.1013E+01  0.2313E+02
  18.990  0.1002E+01  0.2314E+02
  19.000  0.9902E+00  0.2315E+02
  19.010  0.9789E+00  0.2316E+02
  19.020  0.9677E+00  0.2317E+02
  19.030  0.9566E+00  0.2317E+02
  19.040  0.9457E+00  0.2318E+02
  19.050  0.9350E+00  0.2319E+02
  19.060  0.9245E+00  0.2320E+02
  19.070  0.9141E+00  0.2321E+02
  19.080  0.9041E+00  0.2322E+02
  19.090  0.8942E+00  0.2323E+02
  19.100  0.8845E+00  0.2324E+02
  19.110  0.8747E+00  0.2325E+02
  19.120  0.8646E+00  0.2326E+02
  19.130  0.8543E+00  0.2327E+02
  19.140  0.8436E+00  0.2327E+02
  19.150  0.8461E+00  0.2328E+02
  19.160  0.8425E+00  0.2329E+02
  19.170  0.8214E+00  0.2330E+02
  19.180  0.7832E+00  0.2331E+02
  19.190  0.7737E+00  0.2331E+02
  19.200  0.7646E+00  0.2332E+02
  19.210  0.7561E+00  0.2333E+02
  19.220  0.7479E+00  0.2334E+02
  19.230  0.7402E+00  0.2335E+02
  19.240  0.7329E+00  0.2335E+02
  19.250  0.7260E+00  0.2336E+02
  19.260  0.7196E+00  0.2337E+02
  19.270  0.7135E+00  0.2337E+02
  19.280  0.7080E+00  0.2338E+02
  19.290  0.7028E+00  0.2339E+02
  19.300  0.6981E+00  0.2340E+02
  19.310  0.6939E+00  0.2340E+02
  19.320  0.6900E+00  0.2341E+02
  19.330  0.6865E+00  0.2342E+02
  19.340  0.6831E+00  0.2342E+02
  19.350  0.6798E+00  0.2343E+02
  19.360  0.6766E+00  0.2344E+02
  19.370  0.6738E+00  0.2344E+02
  19.380  0.6714E+00  0.2345E+02
  19.390  0.6694E+00  0.2346E+02
  19.400  0.6674E+00  0.2346E+02
  19.410  0.6652E+00  0.2347E+02
  19.420  0.6609E+00  0.2348E+02
  19.430  0.6575E+00  0.2348E+02
  19.440  0.6549E+00  0.2349E+02
  19.450  0.6530E+00  0.2350E+02
  19.460  0.6508E+00  0.2350E+02
  19.470  0.6503E+00  0.2351E+02
  19.480  0.6498E+00  0.2352E+02
  19.490  0.6495E+00  0.2352E+02
  19.500  0.6493E+00  0.2353E+02
  19.510  0.6493E+00  0.2354E+02
  19.520  0.6494E+00  0.2354E+02
  19.530  0.6498E+00  0.2355E+02
  19.540  0.6504E+00  0.2355E+02
  19.550  0.6513E+00  0.2356E+02
  19.560  0.6525E+00  0.2357E+02
  19.570  0.6540E+00  0.2357E+02
  19.580  0.6558E+00  0.2358E+02
  19.590  0.6578E+00  0.2359E+02
  19.600  0.6601E+00  0.2359E+02
  19.610  0.6627E+00  0.2360E+02
  19.620  0.6656E+00  0.2361E+02
  19.630  0.6688E+00  0.2361E+02
  19.640  0.6722E+00  0.2362E+02
  19.650  0.6757E+00  0.2363E+02
  19.660  0.6772E+00  0.2363E+02
  19.670  0.6788E+00  0.2364E+02
  19.680  0.6801E+00  0.2365E+02
  19.690  0.6810E+00  0.2365E+02
  19.700  0.6816E+00  0.2366E+02
  19.710  0.6819E+00  0.2367E+02
  19.720  0.6819E+00  0.2368E+02
  19.730  0.6816E+00  0.2368E+02
  19.740  0.6810E+00  0.2369E+02
  19.750  0.6802E+00  0.2370E+02
  19.760  0.6796E+00  0.2370E+02
  19.770  0.6792E+00  0.2371E+02
  19.780  0.6790E+00  0.2372E+02
  19.790  0.6789E+00  0.2372E+02
  19.800  0.6786E+00  0.2373E+02
  19.810  0.6760E+00  0.2374E+02
  19.820  0.6732E+00  0.2374E+02
  19.830  0.6702E+00  0.2375E+02
  19.840  0.6670E+00  0.2376E+02
  19.850  0.6635E+00  0.2376E+02
  19.860  0.6599E+00  0.2377E+02
  19.870  0.6561E+00  0.2378E+02
  19.880  0.6498E+00  0.2378E+02
  19.890  0.6399E+00  0.2379E+02
  19.900  0.6263E+00  0.2380E+02
  19.910  0.6091E+00  0.2380E+02
  19.920  0.5998E+00  0.2381E+02
  19.930  0.5929E+00  0.2381E+02
  19.940  0.5859E+00  0.2382E+02
  19.950  0.5788E+00  0.2383E+02
  19.960  0.5715E+00  0.2383E+02
  19.970  0.5642E+00  0.2384E+02
  19.980  0.5569E+00  0.2384E+02
  19.990  0.5494E+00  0.2385E+02
  20.000  0.5419E+00  0.2385E+02
  20.010  0.5342E+00  0.2386E+02
  20.020  0.5265E+00  0.2386E+02
  20.030  0.5187E+00  0.2387E+02
  20.040  0.5107E+00  0.2387E+02
  20.050  0.5016E+00  0.2388E+02
  20.060  0.4900E+00  0.2388E+02
  20.070  0.4784E+00  0.2389E+02
  20.080  0.4671E+00  0.2389E+02
  20.090  0.4561E+00  0.2390E+02
  20.100  0.4453E+00  0.2390E+02
  20.110  0.4341E+00  0.2391E+02
  20.120  0.4217E+00  0.2391E+02
  20.130  0.4093E+00  0.2392E+02
  20.140  0.3969E+00  0.2392E+02
  20.150  0.3845E+00  0.2392E+02
  20.160  0.3722E+00  0.2393E+02
  20.170  0.3597E+00  0.2393E+02
  20.180  0.3474E+00  0.2394E+02
  20.190  0.3352E+00  0.2394E+02
  20.200  0.3231E+00  0.2394E+02
  20.210  0.3112E+00  0.2394E+02
  20.220  0.2994E+00  0.2395E+02
  20.230  0.2878E+00  0.2395E+02
  20.240  0.2762E+00  0.2395E+02
  20.250  0.2647E+00  0.2396E+02
  20.260  0.2533E+00  0.2396E+02
  20.270  0.2420E+00  0.2396E+02
  20.280  0.2307E+00  0.2396E+02
  20.290  0.2196E+00  0.2397E+02
  20.300  0.2085E+00  0.2397E+02
  20.310  0.1975E+00  0.2397E+02
  20.320  0.1866E+00  0.2397E+02
  20.330  0.1758E+00  0.2397E+02
  20.340  0.1651E+00  0.2398E+02
  20.350  0.1544E+00  0.2398E+02
  20.360  0.1439E+00  0.2398E+02
  20.370  0.1349E+00  0.2398E+02
  20.380  0.1284E+00  0.2398E+02
  20.390  0.1221E+00  0.2398E+02
  20.400  0.1160E+00  0.2398E+02
  20.410  0.1100E+00  0.2399E+02
  20.420  0.1043E+00  0.2399E+02
  20.430  0.9866E-01  0.2399E+02
  20.440  0.9325E-01  0.2399E+02
  20.450  0.8801E-01  0.2399E+02
  20.460  0.8296E-01  0.2399E+02
  20.470  0.7809E-01  0.2399E+02
  20.480  0.7339E-01  0.2399E+02
  20.490  0.6888E-01  0.2399E+02
  20.500  0.6455E-01  0.2399E+02
  20.510  0.6039E-01  0.2399E+02
  20.520  0.5642E-01  0.2399E+02
  20.530  0.5262E-01  0.2399E+02
  20.540  0.4901E-01  0.2400E+02
  20.550  0.4558E-01  0.2400E+02
  20.560  0.4232E-01  0.2400E+02
  20.570  0.3925E-01  0.2400E+02
  20.580  0.3650E-01  0.2400E+02
  20.590  0.3427E-01  0.2400E+02
  20.600  0.3205E-01  0.2400E+02
  20.610  0.2983E-01  0.2400E+02
  20.620  0.2763E-01  0.2400E+02
  20.630  0.2544E-01  0.2400E+02
  20.640  0.2325E-01  0.2400E+02
  20.650  0.2108E-01  0.2400E+02
  20.660  0.1891E-01  0.2400E+02
  20.670  0.1675E-01  0.2400E+02
  20.680  0.1461E-01  0.2400E+02
  20.690  0.1237E-01  0.2400E+02
  20.700  0.1023E-01  0.2400E+02
  20.710  0.8282E-02  0.2400E+02
  20.720  0.6543E-02  0.2400E+02
  20.730  0.5009E-02  0.2400E+02
  20.740  0.3680E-02  0.2400E+02
  20.750  0.2555E-02  0.2400E+02
  20.760  0.1635E-02  0.2400E+02
  20.770  0.9192E-03  0.2400E+02
  20.780  0.4084E-03  0.2400E+02
  20.790  0.1022E-03  0.2400E+02
  20.800  0.3761E-06  0.2400E+02
  20.810  0.0000E+00  0.2400E+02
  20.820  0.0000E+00  0.2400E+02
  20.830  0.0000E+00  0.2400E+02
  20.840  0.0000E+00  0.2400E+02
  20.850  0.0000E+00  0.2400E+02
  20.860  0.0000E+00  0.2400E+02
  20.870  0.0000E+00  0.2400E+02
  20.880  0.0000E+00  0.2400E+02
  20.890  0.0000E+00  0.2400E+02
  20.900  0.0000E+00  0.2400E+02
  20.910  0.0000E+00  0.2400E+02
  20.920  0.0000E+00  0.2400E+02
  20.930  0.0000E+00  0.2400E+02
  20.940  0.0000E+00  0.2400E+02
  20.950  0.0000E+00  0.2400E+02
  20.960  0.0000E+00  0.2400E+02
  20.970  0.0000E+00  0.2400E+02
  20.980  0.0000E+00  0.2400E+02
  20.990  0.0000E+00  0.2400E+02
  21.000  0.0000E+00  0.2400E+02
  21.010  0.0000E+00  0.2400E+02
  21.020  0.0000E+00  0.2400E+02
  21.030  0.0000E+00  0.2400E+02
  21.040  0.0000E+00  0.2400E+02
  21.050  0.0000E+00  0.2400E+02
  21.060  0.0000E+00  0.2400E+02
  21.070  0.0000E+00  0.2400E+02
  21.080  0.0000E+00  0.2400E+02
  21.090  0.0000E+00  0.2400E+02
  21.100  0.0000E+00  0.2400E+02
  21.110  0.0000E+00  0.2400E+02
  21.120  0.0000E+00  0.2400E+02
  21.130  0.0000E+00  0.2400E+02
  21.140  0.0000E+00  0.2400E+02
  21.150  0.0000E+00  0.2400E+02
  21.160  0.0000E+00  0.2400E+02
  21.170  0.0000E+00  0.2400E+02
  21.180  0.0000E+00  0.2400E+02
  21.190  0.0000E+00  0.2400E+02
  21.200  0.0000E+00  0.2400E+02
  21.210  0.0000E+00  0.2400E+02
  21.220  0.0000E+00  0.2400E+02
  21.230  0.0000E+00  0.2400E+02
  21.240  0.0000E+00  0.2400E+02
  21.250  0.0000E+00  0.2400E+02
  21.260  0.0000E+00  0.2400E+02
  21.270  0.0000E+00  0.2400E+02
  21.280  0.0000E+00  0.2400E+02
  21.290  0.0000E+00  0.2400E+02
  21.300  0.0000E+00  0.2400E+02
  21.310  0.0000E+00  0.2400E+02
  21.320  0.0000E+00  0.2400E+02
  21.330  0.0000E+00  0.2400E+02
  21.340  0.0000E+00  0.2400E+02
  21.350  0.0000E+00  0.2400E+02
  21.360  0.0000E+00  0.2400E+02
  21.370  0.0000E+00  0.2400E+02
  21.380  0.0000E+00  0.2400E+02
  21.390  0.0000E+00  0.2400E+02
  21.400  0.0000E+00  0.2400E+02
  21.410  0.0000E+00  0.2400E+02
  21.420  0.0000E+00  0.2400E+02
  21.430  0.0000E+00  0.2400E+02
  21.440  0.0000E+00  0.2400E+02
  21.450  0.0000E+00  0.2400E+02
  21.460  0.0000E+00  0.2400E+02
  21.470  0.0000E+00  0.2400E+02
  21.480  0.0000E+00  0.2400E+02
  21.490  0.0000E+00  0.2400E+02
  21.500  0.0000E+00  0.2400E+02
  21.510  0.0000E+00  0.2400E+02
  21.520  0.0000E+00  0.2400E+02
  21.530  0.0000E+00  0.2400E+02
  21.540  0.0000E+00  0.2400E+02
  21.550  0.0000E+00  0.2400E+02
  21.560  0.0000E+00  0.2400E+02
  21.570  0.0000E+00  0.2400E+02
  21.580  0.0000E+00  0.2400E+02
  21.590  0.0000E+00  0.2400E+02
  21.600  0.0000E+00  0.2400E+02
  21.610  0.0000E+00  0.2400E+02
  21.620  0.0000E+00  0.2400E+02
  21.630  0.0000E+00  0.2400E+02
  21.640  0.0000E+00  0.2400E+02
  21.650  0.0000E+00  0.2400E+02
  21.660  0.0000E+00  0.2400E+02
  21.670  0.0000E+00  0.2400E+02
  21.680  0.0000E+00  0.2400E+02
  21.690  0.0000E+00  0.2400E+02
  21.700  0.0000E+00  0.2400E+02
  21.710  0.0000E+00  0.2400E+02
  21.720  0.0000E+00  0.2400E+02
  21.730  0.0000E+00  0.2400E+02
  21.740  0.0000E+00  0.2400E+02
  21.750  0.0000E+00  0.2400E+02
  21.760  0.0000E+00  0.2400E+02
  21.770  0.0000E+00  0.2400E+02
  21.780  0.0000E+00  0.2400E+02
  21.790  0.0000E+00  0.2400E+02
  21.800  0.0000E+00  0.2400E+02
  21.810  0.0000E+00  0.2400E+02
  21.820  0.0000E+00  0.2400E+02
  21.830  0.0000E+00  0.2400E+02
  21.840  0.0000E+00  0.2400E+02
  21.850  0.0000E+00  0.2400E+02
  21.860  0.0000E+00  0.2400E+02
  21.870  0.0000E+00  0.2400E+02
  21.880  0.0000E+00  0.2400E+02
  21.890  0.0000E+00  0.2400E+02
  21.900  0.0000E+00  0.2400E+02
  21.910  0.0000E+00  0.2400E+02
  21.920  0.0000E+00  0.2400E+02
  21.930  0.0000E+00  0.2400E+02
  21.940  0.0000E+00  0.2400E+02
  21.950  0.0000E+00  0.2400E+02
  21.960  0.0000E+00  0.2400E+02
  21.970  0.0000E+00  0.2400E+02
  21.980  0.0000E+00  0.2400E+02
  21.990  0.0000E+00  0.2400E+02
  22.000  0.0000E+00  0.2400E+02
  22.010  0.0000E+00  0.2400E+02
  22.020  0.0000E+00  0.2400E+02
  22.030  0.0000E+00  0.2400E+02
  22.040  0.0000E+00  0.2400E+02
  22.050  0.0000E+00  0.2400E+02
  22.060  0.0000E+00  0.2400E+02
  22.070  0.0000E+00  0.2400E+02
  22.080  0.0000E+00  0.2400E+02
  22.090  0.0000E+00  0.2400E+02
  22.100  0.0000E+00  0.2400E+02
  22.110  0.0000E+00  0.2400E+02
  22.120  0.0000E+00  0.2400E+02
  22.130  0.0000E+00  0.2400E+02
  22.140  0.0000E+00  0.2400E+02
  22.150  0.0000E+00  0.2400E+02
  22.160  0.0000E+00  0.2400E+02
  22.170  0.0000E+00  0.2400E+02
  22.180  0.0000E+00  0.2400E+02
  22.190  0.0000E+00  0.2400E+02
  22.200  0.0000E+00  0.2400E+02
  22.210  0.0000E+00  0.2400E+02
  22.220  0.0000E+00  0.2400E+02
  22.230  0.0000E+00  0.2400E+02
  22.240  0.0000E+00  0.2400E+02
  22.250  0.0000E+00  0.2400E+02
  22.260  0.0000E+00  0.2400E+02
  22.270  0.0000E+00  0.2400E+02
  22.280  0.0000E+00  0.2400E+02
  22.290  0.0000E+00  0.2400E+02
  22.300  0.0000E+00  0.2400E+02
  22.310  0.0000E+00  0.2400E+02
  22.320  0.0000E+00  0.2400E+02
  22.330  0.0000E+00  0.2400E+02
  22.340  0.0000E+00  0.2400E+02
  22.350  0.0000E+00  0.2400E+02
  22.360  0.0000E+00  0.2400E+02
  22.370  0.0000E+00  0.2400E+02
  22.380  0.0000E+00  0.2400E+02
  22.390  0.0000E+00  0.2400E+02
  22.400  0.0000E+00  0.2400E+02
  22.410  0.0000E+00  0.2400E+02
  22.420  0.0000E+00  0.2400E+02
  22.430  0.0000E+00  0.2400E+02
  22.440  0.0000E+00  0.2400E+02
  22.450  0.0000E+00  0.2400E+02
  22.460  0.0000E+00  0.2400E+02
  22.470  0.0000E+00  0.2400E+02
  22.480  0.0000E+00  0.2400E+02
  22.490  0.0000E+00  0.2400E+02
  22.500  0.0000E+00  0.2400E+02
  22.510  0.0000E+00  0.2400E+02
  22.520  0.0000E+00  0.2400E+02
  22.530  0.0000E+00  0.2400E+02
  22.540  0.0000E+00  0.2400E+02
  22.550  0.0000E+00  0.2400E+02
  22.560  0.0000E+00  0.2400E+02
  22.570  0.0000E+00  0.2400E+02
  22.580  0.0000E+00  0.2400E+02
  22.590  0.0000E+00  0.2400E+02
  22.600  0.0000E+00  0.2400E+02
  22.610  0.0000E+00  0.2400E+02
  22.620  0.0000E+00  0.2400E+02
  22.630  0.0000E+00  0.2400E+02
  22.640  0.0000E+00  0.2400E+02
  22.650  0.0000E+00  0.2400E+02
  22.660  0.0000E+00  0.2400E+02
  22.670  0.0000E+00  0.2400E+02
  22.680  0.0000E+00  0.2400E+02
  22.690  0.0000E+00  0.2400E+02
  22.700  0.0000E+00  0.2400E+02
  22.710  0.0000E+00  0.2400E+02
  22.720  0.0000E+00  0.2400E+02
  22.730  0.0000E+00  0.2400E+02
  22.740  0.0000E+00  0.2400E+02
  22.750  0.0000E+00  0.2400E+02
  22.760  0.0000E+00  0.2400E+02
  22.770  0.0000E+00  0.2400E+02
  22.780  0.0000E+00  0.2400E+02
  22.790  0.0000E+00  0.2400E+02
  22.800  0.0000E+00  0.2400E+02
  22.810  0.0000E+00  0.2400E+02
  22.820  0.0000E+00  0.2400E+02
  22.830  0.0000E+00  0.2400E+02
  22.840  0.0000E+00  0.2400E+02
  22.850  0.0000E+00  0.2400E+02
  22.860  0.0000E+00  0.2400E+02
  22.870  0.0000E+00  0.2400E+02
  22.880  0.0000E+00  0.2400E+02
  22.890  0.0000E+00  0.2400E+02
  22.900  0.0000E+00  0.2400E+02
  22.910  0.0000E+00  0.2400E+02
  22.920  0.0000E+00  0.2400E+02
  22.930  0.0000E+00  0.2400E+02
  22.940  0.0000E+00  0.2400E+02
  22.950  0.0000E+00  0.2400E+02
  22.960  0.0000E+00  0.2400E+02
  22.970  0.0000E+00  0.2400E+02
  22.980  0.0000E+00  0.2400E+02
  22.990  0.0000E+00  0.2400E+02
  23.000  0.0000E+00  0.2400E+02
  23.010  0.0000E+00  0.2400E+02
  23.020  0.0000E+00  0.2400E+02
  23.030  0.0000E+00  0.2400E+02
  23.040  0.0000E+00  0.2400E+02
  23.050  0.0000E+00  0.2400E+02
  23.060  0.0000E+00  0.2400E+02
  23.070  0.0000E+00  0.2400E+02
  23.080  0.0000E+00  0.2400E+02
  23.090  0.0000E+00  0.2400E+02
  23.100  0.0000E+00  0.2400E+02
  23.110  0.0000E+00  0.2400E+02
  23.120  0.0000E+00  0.2400E+02
  23.130  0.0000E+00  0.2400E+02
  23.140  0.0000E+00  0.2400E+02
  23.150  0.0000E+00  0.2400E+02
  23.160  0.0000E+00  0.2400E+02
  23.170  0.0000E+00  0.2400E+02
  23.180  0.0000E+00  0.2400E+02
  23.190  0.0000E+00  0.2400E+02
  23.200  0.0000E+00  0.2400E+02
  23.210  0.0000E+00  0.2400E+02
  23.220  0.0000E+00  0.2400E+02
  23.230  0.0000E+00  0.2400E+02
  23.240  0.0000E+00  0.2400E+02
  23.250  0.0000E+00  0.2400E+02
  23.260  0.0000E+00  0.2400E+02
  23.270  0.0000E+00  0.2400E+02
  23.280  0.0000E+00  0.2400E+02
  23.290  0.0000E+00  0.2400E+02
  23.300  0.0000E+00  0.2400E+02
  23.310  0.0000E+00  0.2400E+02
  23.320  0.0000E+00  0.2400E+02
  23.330  0.0000E+00  0.2400E+02
  23.340  0.0000E+00  0.2400E+02
  23.350  0.0000E+00  0.2400E+02
  23.360  0.0000E+00  0.2400E+02
  23.370  0.0000E+00  0.2400E+02
  23.380  0.0000E+00  0.2400E+02
  23.390  0.0000E+00  0.2400E+02
  23.400  0.0000E+00  0.2400E+02
  23.410  0.0000E+00  0.2400E+02
  23.420  0.0000E+00  0.2400E+02
  23.430  0.0000E+00  0.2400E+02
  23.440  0.0000E+00  0.2400E+02
  23.450  0.0000E+00  0.2400E+02
  23.460  0.0000E+00  0.2400E+02
  23.470  0.0000E+00  0.2400E+02
  23.480  0.0000E+00  0.2400E+02
  23.490  0.0000E+00  0.2400E+02
  23.500  0.0000E+00  0.2400E+02
  23.510  0.0000E+00  0.2400E+02
  23.520  0.0000E+00  0.2400E+02
  23.530  0.0000E+00  0.2400E+02
  23.540  0.0000E+00  0.2400E+02
  23.550  0.0000E+00  0.2400E+02
  23.560  0.0000E+00  0.2400E+02
  23.570  0.0000E+00  0.2400E+02
  23.580  0.0000E+00  0.2400E+02
  23.590  0.0000E+00  0.2400E+02
  23.600  0.0000E+00  0.2400E+02
  23.610  0.0000E+00  0.2400E+02
  23.620  0.0000E+00  0.2400E+02
  23.630  0.0000E+00  0.2400E+02
  23.640  0.0000E+00  0.2400E+02
  23.650  0.0000E+00  0.2400E+02
  23.660  0.0000E+00  0.2400E+02
  23.670  0.0000E+00  0.2400E+02
  23.680  0.0000E+00  0.2400E+02
  23.690  0.0000E+00  0.2400E+02
  23.700  0.0000E+00  0.2400E+02
  23.710  0.0000E+00  0.2400E+02
  23.720  0.0000E+00  0.2400E+02
  23.730  0.0000E+00  0.2400E+02
  23.740  0.0000E+00  0.2400E+02
  23.750  0.0000E+00  0.2400E+02
  23.760  0.0000E+00  0.2400E+02
  23.770  0.0000E+00  0.2400E+02
  23.780  0.0000E+00  0.2400E+02
  23.790  0.0000E+00  0.2400E+02
  23.800  0.0000E+00  0.2400E+02
  23.810  0.0000E+00  0.2400E+02
  23.820  0.0000E+00  0.2400E+02
  23.830  0.0000E+00  0.2400E+02
  23.840  0.0000E+00  0.2400E+02
  23.850  0.0000E+00  0.2400E+02
  23.860  0.0000E+00  0.2400E+02
  23.870  0.0000E+00  0.2400E+02
  23.880  0.0000E+00  0.2400E+02
  23.890  0.0000E+00  0.2400E+02
  23.900  0.0000E+00  0.2400E+02
  23.910  0.0000E+00  0.2400E+02
  23.920  0.0000E+00  0.2400E+02
  23.930  0.0000E+00  0.2400E+02
  23.940  0.0000E+00  0.2400E+02
  23.950  0.0000E+00  0.2400E+02
  23.960  0.0000E+00  0.2400E+02
  23.970  0.0000E+00  0.2400E+02
  23.980  0.0000E+00  0.2400E+02
  23.990  0.0000E+00  0.2400E+02
  24.000  0.0000E+00  0.2400E+02
  24.010  0.0000E+00  0.2400E+02
  24.020  0.0000E+00  0.2400E+02
  24.030  0.0000E+00  0.2400E+02
  24.040  0.0000E+00  0.2400E+02
  24.050  0.0000E+00  0.2400E+02
  24.060  0.0000E+00  0.2400E+02
  24.070  0.0000E+00  0.2400E+02
  24.080  0.0000E+00  0.2400E+02
  24.090  0.0000E+00  0.2400E+02
  24.100  0.0000E+00  0.2400E+02
  24.110  0.0000E+00  0.2400E+02
  24.120  0.0000E+00  0.2400E+02
  24.130  0.0000E+00  0.2400E+02
  24.140  0.0000E+00  0.2400E+02
  24.150  0.0000E+00  0.2400E+02
  24.160  0.0000E+00  0.2400E+02
  24.170  0.0000E+00  0.2400E+02
  24.180  0.0000E+00  0.2400E+02
  24.190  0.0000E+00  0.2400E+02
  24.200  0.0000E+00  0.2400E+02
  24.210  0.0000E+00  0.2400E+02
  24.220  0.0000E+00  0.2400E+02
  24.230  0.0000E+00  0.2400E+02
  24.240  0.0000E+00  0.2400E+02
  24.250  0.0000E+00  0.2400E+02
  24.260  0.0000E+00  0.2400E+02
  24.270  0.0000E+00  0.2400E+02
  24.280  0.0000E+00  0.2400E+02
  24.290  0.0000E+00  0.2400E+02
  24.300  0.0000E+00  0.2400E+02
  24.310  0.0000E+00  0.2400E+02
  24.320  0.0000E+00  0.2400E+02
  24.330  0.0000E+00  0.2400E+02
  24.340  0.0000E+00  0.2400E+02
  24.350  0.0000E+00  0.2400E+02
  24.360  0.0000E+00  0.2400E+02
  24.370  0.0000E+00  0.2400E+02
  24.380  0.0000E+00  0.2400E+02
  24.390  0.0000E+00  0.2400E+02
  24.400  0.0000E+00  0.2400E+02
  24.410  0.0000E+00  0.2400E+02
  24.420  0.0000E+00  0.2400E+02
  24.430  0.0000E+00  0.2400E+02
  24.440  0.0000E+00  0.2400E+02
  24.450  0.0000E+00  0.2400E+02
  24.460  0.0000E+00  0.2400E+02
  24.470  0.0000E+00  0.2400E+02
  24.480  0.0000E+00  0.2400E+02
  24.490  0.0000E+00  0.2400E+02
  24.500  0.0000E+00  0.2400E+02
  24.510  0.0000E+00  0.2400E+02
  24.520  0.0000E+00  0.2400E+02
  24.530  0.0000E+00  0.2400E+02
  24.540  0.0000E+00  0.2400E+02
  24.550  0.0000E+00  0.2400E+02
  24.560  0.0000E+00  0.2400E+02
  24.570  0.0000E+00  0.2400E+02
  24.580  0.0000E+00  0.2400E+02
  24.590  0.0000E+00  0.2400E+02
  24.600  0.0000E+00  0.2400E+02
  24.610  0.0000E+00  0.2400E+02
  24.620  0.0000E+00  0.2400E+02
  24.630  0.0000E+00  0.2400E+02
  24.640  0.0000E+00  0.2400E+02
  24.650  0.0000E+00  0.2400E+02
  24.660  0.0000E+00  0.2400E+02
  24.670  0.0000E+00  0.2400E+02
  24.680  0.0000E+00  0.2400E+02
  24.690  0.0000E+00  0.2400E+02
  24.700  0.0000E+00  0.2400E+02
  24.710  0.0000E+00  0.2400E+02
  24.720  0.0000E+00  0.2400E+02
  24.730  0.0000E+00  0.2400E+02
  24.740  0.0000E+00  0.2400E+02
  24.750  0.0000E+00  0.2400E+02
  24.760  0.0000E+00  0.2400E+02
  24.770  0.0000E+00  0.2400E+02
  24.780  0.0000E+00  0.2400E+02
  24.790  0.0000E+00  0.2400E+02
  24.800  0.0000E+00  0.2400E+02
  24.810  0.0000E+00  0.2400E+02
  24.820  0.0000E+00  0.2400E+02
  24.830  0.0000E+00  0.2400E+02
  24.840  0.0000E+00  0.2400E+02
  24.850  0.0000E+00  0.2400E+02
  24.860  0.0000E+00  0.2400E+02
  24.870  0.0000E+00  0.2400E+02
  24.880  0.0000E+00  0.2400E+02
  24.890  0.0000E+00  0.2400E+02
  24.900  0.0000E+00  0.2400E+02
  24.910  0.0000E+00  0.2400E+02
  24.920  0.0000E+00  0.2400E+02
  24.930  0.0000E+00  0.2400E+02
  24.940  0.0000E+00  0.2400E+02
  24.950  0.0000E+00  0.2400E+02
  24.960  0.0000E+00  0.2400E+02
  24.970  0.0000E+00  0.2400E+02
  24.980  0.0000E+00  0.2400E+02
  24.990  0.0000E+00  0.2400E+02
  25.000  0.0000E+00  0.2400E+02
